timestamps,TP9,FP1,FP2,TP10,n/a,n/a,Marker0
1507101508.853,845.520,789.591,847.165,848.810,0.000,0.000,2
1507101508.853,840.585,792.881,852.100,850.455,0.000,0.000,0
1507101508.853,840.585,791.236,852.100,847.165,0.000,0.000,0
1507101508.853,840.585,792.881,848.810,843.875,0.000,0.000,0
1507101508.853,842.230,791.236,845.520,838.940,0.000,0.000,0
1507101508.853,838.940,791.236,847.165,847.165,0.000,0.000,0
1507101508.853,832.360,794.526,850.455,842.230,0.000,0.000,0
1507101508.853,832.360,791.236,852.100,837.295,0.000,0.000,0
1507101508.853,842.230,789.591,852.100,847.165,0.000,0.000,0
1507101508.853,845.520,791.236,848.810,840.585,0.000,0.000,0
1507101508.853,838.940,796.170,852.100,848.810,0.000,0.000,0
1507101508.853,838.940,789.591,853.745,853.745,0.000,0.000,0
1507101508.853,842.230,787.946,853.745,850.455,0.000,0.000,0
1507101508.853,840.585,787.946,850.455,847.165,0.000,0.000,0
1507101508.853,838.940,787.946,852.100,855.390,0.000,0.000,0
1507101508.853,840.585,787.946,852.100,848.810,0.000,0.000,0
1507101508.918,832.360,783.011,850.455,838.940,0.000,0.000,0
1507101508.918,840.585,789.591,848.810,830.715,0.000,0.000,0
1507101508.918,842.230,789.591,847.165,834.005,0.000,0.000,0
1507101508.918,843.875,797.815,852.100,832.360,0.000,0.000,0
1507101508.918,855.390,789.591,847.165,853.745,0.000,0.000,0
1507101508.918,852.100,792.881,848.810,850.455,0.000,0.000,0
1507101508.918,847.165,796.170,847.165,843.875,0.000,0.000,0
1507101508.918,843.875,794.526,850.455,848.810,0.000,0.000,0
1507101508.918,837.295,787.946,848.810,850.455,0.000,0.000,0
1507101508.918,837.295,791.236,848.810,843.875,0.000,0.000,0
1507101508.918,840.585,792.881,847.165,837.295,0.000,0.000,0
1507101508.918,840.585,794.526,850.455,847.165,0.000,0.000,0
1507101508.918,838.940,789.591,853.745,848.810,0.000,0.000,0
1507101508.918,842.230,787.946,848.810,850.455,0.000,0.000,0
1507101508.918,838.940,789.591,847.165,848.810,0.000,0.000,0
1507101508.918,835.650,794.526,847.165,838.940,0.000,0.000,0
1507101508.918,837.295,801.105,850.455,847.165,0.000,0.000,0
1507101508.983,838.940,789.591,850.455,850.455,0.000,0.000,0
1507101508.983,835.650,787.946,850.455,838.940,0.000,0.000,0
1507101508.983,838.940,789.591,848.810,838.940,0.000,0.000,0
1507101508.983,835.650,799.460,853.745,837.295,0.000,0.000,0
1507101508.983,834.005,804.395,853.745,830.715,0.000,0.000,0
1507101508.983,842.230,797.815,852.100,847.165,0.000,0.000,0
1507101508.983,840.585,783.011,850.455,845.520,0.000,0.000,0
1507101508.983,840.585,789.591,847.165,838.940,0.000,0.000,0
1507101508.983,842.230,801.105,850.455,852.100,0.000,0.000,0
1507101508.983,837.295,801.105,850.455,832.360,0.000,0.000,0
1507101508.983,843.875,799.460,847.165,842.230,0.000,0.000,0
1507101508.983,845.520,787.946,845.520,840.585,0.000,0.000,0
1507101508.983,838.940,787.946,850.455,845.520,0.000,0.000,0
1507101508.983,837.295,796.170,852.100,842.230,0.000,0.000,0
1507101508.983,843.875,796.170,848.810,845.520,0.000,0.000,0
1507101508.983,840.585,792.881,845.520,835.650,0.000,0.000,0
1507101509.067,843.875,794.526,845.520,845.520,0.000,0.000,0
1507101509.067,842.230,794.526,848.810,848.810,0.000,0.000,0
1507101509.067,842.230,789.591,848.810,840.585,0.000,0.000,0
1507101509.067,852.100,781.366,845.520,842.230,0.000,0.000,0
1507101509.067,848.810,787.946,845.520,840.585,0.000,0.000,0
1507101509.067,840.585,796.170,852.100,845.520,0.000,0.000,0
1507101509.067,843.875,796.170,848.810,845.520,0.000,0.000,0
1507101509.067,843.875,796.170,848.810,848.810,0.000,0.000,0
1507101509.067,850.455,789.591,845.520,837.295,0.000,0.000,0
1507101509.067,852.100,786.301,843.875,845.520,0.000,0.000,0
1507101509.067,843.875,797.815,845.520,840.585,0.000,0.000,0
1507101509.067,837.295,789.591,847.165,834.005,0.000,0.000,0
1507101509.067,843.875,779.721,845.520,834.005,0.000,0.000,0
1507101509.067,845.520,789.591,845.520,843.875,0.000,0.000,0
1507101509.067,835.650,794.526,850.455,845.520,0.000,0.000,0
1507101509.067,838.940,797.815,847.165,840.585,0.000,0.000,0
1507101509.133,842.230,799.460,843.875,840.585,0.000,0.000,0
1507101509.133,840.585,792.881,845.520,847.165,0.000,0.000,0
1507101509.133,838.940,794.526,847.165,848.810,0.000,0.000,0
1507101509.133,835.650,786.301,847.165,837.295,0.000,0.000,0
1507101509.133,840.585,787.946,843.875,842.230,0.000,0.000,0
1507101509.133,843.875,783.011,840.585,838.940,0.000,0.000,0
1507101509.133,857.035,796.170,843.875,847.165,0.000,0.000,0
1507101509.133,847.165,804.395,847.165,847.165,0.000,0.000,0
1507101509.133,843.875,801.105,847.165,835.650,0.000,0.000,0
1507101509.133,850.455,796.170,845.520,843.875,0.000,0.000,0
1507101509.133,850.455,791.236,843.875,843.875,0.000,0.000,0
1507101509.133,850.455,794.526,843.875,847.165,0.000,0.000,0
1507101509.133,845.520,797.815,843.875,842.230,0.000,0.000,0
1507101509.133,847.165,797.815,843.875,838.940,0.000,0.000,0
1507101509.133,850.455,787.946,840.585,843.875,0.000,0.000,0
1507101509.133,843.875,787.946,845.520,847.165,0.000,0.000,0
1507101509.216,840.585,787.946,847.165,845.520,0.000,0.000,0
1507101509.216,835.650,781.366,845.520,853.745,0.000,0.000,0
1507101509.216,840.585,791.236,843.875,843.875,0.000,0.000,0
1507101509.216,843.875,789.591,842.230,842.230,0.000,0.000,0
1507101509.216,837.295,786.301,842.230,838.940,0.000,0.000,0
1507101509.216,838.940,796.170,842.230,840.585,0.000,0.000,0
1507101509.216,835.650,796.170,845.520,838.940,0.000,0.000,0
1507101509.216,845.520,794.526,842.230,853.745,0.000,0.000,0
1507101509.216,838.940,797.815,845.520,852.100,0.000,0.000,0
1507101509.216,832.360,789.591,845.520,848.810,0.000,0.000,0
1507101509.216,835.650,784.656,842.230,845.520,0.000,0.000,0
1507101509.216,834.005,786.301,843.875,835.650,0.000,0.000,0
1507101509.216,842.230,784.656,843.875,848.810,0.000,0.000,0
1507101509.216,838.940,783.011,847.165,843.875,0.000,0.000,0
1507101509.216,837.295,787.946,847.165,852.100,0.000,0.000,0
1507101509.216,843.875,796.170,845.520,853.745,0.000,0.000,0
1507101509.284,835.650,792.881,843.875,837.295,0.000,0.000,0
1507101509.284,838.940,792.881,843.875,853.745,0.000,0.000,0
1507101509.284,843.875,789.591,842.230,855.390,0.000,0.000,0
1507101509.284,845.520,787.946,843.875,855.390,0.000,0.000,0
1507101509.284,848.810,789.591,843.875,857.035,0.000,0.000,0
1507101509.284,843.875,792.881,847.165,852.100,0.000,0.000,0
1507101509.284,838.940,794.526,847.165,843.875,0.000,0.000,0
1507101509.284,843.875,789.591,847.165,848.810,0.000,0.000,0
1507101509.284,840.585,789.591,845.520,835.650,0.000,0.000,0
1507101509.284,843.875,778.076,843.875,834.005,0.000,0.000,0
1507101509.284,842.230,778.076,847.165,842.230,0.000,0.000,0
1507101509.284,835.650,792.881,847.165,834.005,0.000,0.000,0
1507101509.284,852.100,789.591,845.520,853.745,0.000,0.000,0
1507101509.284,852.100,792.881,842.230,845.520,0.000,0.000,0
1507101509.284,845.520,791.236,843.875,847.165,0.000,0.000,0
1507101509.284,845.520,786.301,847.165,850.455,0.000,0.000,0
1507101509.352,843.875,784.656,843.875,838.940,0.000,0.000,0
1507101509.352,842.230,789.591,843.875,840.585,0.000,0.000,0
1507101509.352,848.810,781.366,845.520,852.100,0.000,0.000,0
1507101509.352,838.940,789.591,848.810,845.520,0.000,0.000,0
1507101509.352,837.295,786.301,848.810,843.875,0.000,0.000,0
1507101509.352,840.585,776.431,845.520,838.940,0.000,0.000,0
1507101509.352,843.875,783.011,842.230,838.940,0.000,0.000,0
1507101509.352,838.940,794.526,847.165,840.585,0.000,0.000,0
1507101509.352,840.585,799.460,852.100,834.005,0.000,0.000,0
1507101509.352,848.810,799.460,850.455,848.810,0.000,0.000,0
1507101509.352,850.455,794.526,848.810,845.520,0.000,0.000,0
1507101509.352,848.810,787.946,848.810,848.810,0.000,0.000,0
1507101509.352,842.230,792.881,852.100,847.165,0.000,0.000,0
1507101509.352,838.940,794.526,850.455,840.585,0.000,0.000,0
1507101509.352,843.875,792.881,847.165,829.070,0.000,0.000,0
1507101509.352,843.875,787.946,845.520,838.940,0.000,0.000,0
1507101509.433,843.875,784.656,850.455,843.875,0.000,0.000,0
1507101509.433,838.940,781.366,853.745,837.295,0.000,0.000,0
1507101509.433,845.520,783.011,852.100,848.810,0.000,0.000,0
1507101509.433,847.165,796.170,850.455,842.230,0.000,0.000,0
1507101509.433,842.230,791.236,847.165,838.940,0.000,0.000,0
1507101509.433,843.875,791.236,845.520,852.100,0.000,0.000,0
1507101509.433,842.230,796.170,848.810,843.875,0.000,0.000,0
1507101509.433,848.810,791.236,850.455,842.230,0.000,0.000,0
1507101509.433,842.230,801.105,847.165,837.295,0.000,0.000,0
1507101509.433,840.585,797.815,850.455,837.295,0.000,0.000,0
1507101509.433,840.585,789.591,848.810,840.585,0.000,0.000,0
1507101509.433,848.810,794.526,848.810,840.585,0.000,0.000,0
1507101509.433,853.745,786.301,848.810,850.455,0.000,0.000,0
1507101509.433,843.875,792.881,850.455,837.295,0.000,0.000,0
1507101509.433,842.230,791.236,847.165,853.745,0.000,0.000,0
1507101509.433,840.585,794.526,845.520,838.940,0.000,0.000,0
1507101509.501,845.520,797.815,847.165,834.005,0.000,0.000,0
1507101509.501,847.165,789.591,843.875,842.230,0.000,0.000,0
1507101509.501,840.585,784.656,848.810,840.585,0.000,0.000,0
1507101509.501,840.585,786.301,848.810,835.650,0.000,0.000,0
1507101509.501,847.165,794.526,848.810,840.585,0.000,0.000,0
1507101509.501,847.165,787.946,848.810,843.875,0.000,0.000,0
1507101509.501,843.875,792.881,850.455,845.520,0.000,0.000,0
1507101509.501,843.875,789.591,852.100,861.970,0.000,0.000,0
1507101509.501,843.875,792.881,852.100,842.230,0.000,0.000,0
1507101509.501,845.520,796.170,847.165,842.230,0.000,0.000,0
1507101509.501,842.230,794.526,848.810,840.585,0.000,0.000,0
1507101509.501,838.940,794.526,852.100,842.230,0.000,0.000,0
1507101509.501,838.940,792.881,847.165,842.230,0.000,0.000,0
1507101509.501,840.585,792.881,848.810,837.295,0.000,0.000,0
1507101509.501,845.520,792.881,845.520,848.810,0.000,0.000,0
1507101509.501,840.585,789.591,847.165,837.295,0.000,0.000,0
1507101509.501,838.940,794.526,845.520,842.230,0.000,0.000,0
1507101509.587,842.230,796.170,843.875,832.360,0.000,0.000,0
1507101509.587,848.810,789.591,842.230,835.650,0.000,0.000,0
1507101509.587,840.585,792.881,842.230,837.295,0.000,0.000,0
1507101509.587,838.940,791.236,843.875,840.585,0.000,0.000,0
1507101509.587,842.230,783.011,842.230,837.295,0.000,0.000,0
1507101509.587,845.520,786.301,840.585,837.295,0.000,0.000,0
1507101509.587,843.875,791.236,842.230,834.005,0.000,0.000,0
1507101509.587,838.940,801.105,848.810,835.650,0.000,0.000,0
1507101509.587,840.585,801.105,847.165,838.940,0.000,0.000,0
1507101509.587,847.165,797.815,842.230,837.295,0.000,0.000,0
1507101509.587,852.100,796.170,847.165,840.585,0.000,0.000,0
1507101509.587,848.810,794.526,848.810,843.875,0.000,0.000,0
1507101509.587,840.585,799.460,852.100,850.455,0.000,0.000,0
1507101509.587,848.810,792.881,852.100,848.810,0.000,0.000,0
1507101509.587,853.745,787.946,848.810,855.390,0.000,0.000,0
1507101509.587,852.100,791.236,848.810,845.520,0.000,0.000,0
1507101509.648,842.230,791.236,852.100,840.585,0.000,0.000,0
1507101509.648,837.295,786.301,848.810,847.165,0.000,0.000,0
1507101509.648,843.875,794.526,847.165,840.585,0.000,0.000,0
1507101509.648,852.100,796.170,847.165,847.165,0.000,0.000,0
1507101509.648,853.745,794.526,847.165,855.390,0.000,0.000,0
1507101509.648,843.875,796.170,848.810,848.810,0.000,0.000,0
1507101509.648,843.875,794.526,848.810,848.810,0.000,0.000,0
1507101509.648,850.455,792.881,847.165,852.100,0.000,0.000,0
1507101509.648,845.520,796.170,850.455,852.100,0.000,0.000,0
1507101509.648,838.940,792.881,850.455,840.585,0.000,0.000,0
1507101509.648,842.230,792.881,847.165,832.360,0.000,0.000,0
1507101509.648,850.455,792.881,847.165,834.005,0.000,0.000,0
1507101509.648,850.455,792.881,847.165,842.230,0.000,0.000,0
1507101509.648,850.455,791.236,853.745,852.100,0.000,0.000,0
1507101509.648,840.585,792.881,852.100,847.165,0.000,0.000,0
1507101509.648,845.520,789.591,848.810,845.520,0.000,0.000,0
1507101509.727,855.390,792.881,845.520,845.520,0.000,0.000,0
1507101509.727,850.455,796.170,845.520,852.100,0.000,0.000,0
1507101509.727,845.520,794.526,848.810,843.875,0.000,0.000,0
1507101509.727,853.745,789.591,848.810,848.810,0.000,0.000,0
1507101509.727,853.745,786.301,848.810,850.455,0.000,0.000,0
1507101509.727,852.100,786.301,850.455,853.745,0.000,0.000,0
1507101509.727,845.520,791.236,853.745,858.680,0.000,0.000,0
1507101509.727,840.585,792.881,852.100,845.520,0.000,0.000,0
1507101509.727,850.455,791.236,848.810,857.035,0.000,0.000,0
1507101509.727,843.875,794.526,848.810,843.875,0.000,0.000,0
1507101509.727,842.230,797.815,847.165,848.810,0.000,0.000,0
1507101509.727,838.940,792.881,850.455,852.100,0.000,0.000,0
1507101509.727,837.295,787.946,848.810,845.520,0.000,0.000,0
1507101509.727,848.810,779.721,845.520,852.100,0.000,0.000,0
1507101509.727,845.520,787.946,852.100,847.165,0.000,0.000,0
1507101509.727,843.875,791.236,852.100,843.875,0.000,0.000,0
1507101509.798,843.875,789.591,852.100,842.230,0.000,0.000,0
1507101509.798,842.230,786.301,850.455,830.715,0.000,0.000,0
1507101509.798,847.165,786.301,850.455,850.455,0.000,0.000,0
1507101509.798,840.585,796.170,853.745,848.810,0.000,0.000,0
1507101509.798,845.520,786.301,850.455,852.100,0.000,0.000,0
1507101509.798,842.230,789.591,850.455,855.390,0.000,0.000,0
1507101509.798,845.520,789.591,847.165,842.230,0.000,0.000,0
1507101509.798,843.875,789.591,847.165,845.520,0.000,0.000,0
1507101509.798,842.230,792.881,852.100,842.230,0.000,0.000,0
1507101509.798,847.165,791.236,848.810,834.005,0.000,0.000,0
1507101509.798,855.390,791.236,848.810,853.745,0.000,0.000,0
1507101509.798,852.100,783.011,848.810,852.100,0.000,0.000,0
1507101509.798,845.520,792.881,850.455,847.165,0.000,0.000,0
1507101509.798,848.810,791.236,852.100,857.035,0.000,0.000,0
1507101509.798,847.165,792.881,852.100,845.520,0.000,0.000,0
1507101509.798,848.810,796.170,852.100,850.455,0.000,0.000,0
1507101509.864,843.875,792.881,852.100,847.165,0.000,0.000,0
1507101509.864,838.940,789.591,850.455,843.875,0.000,0.000,0
1507101509.864,842.230,791.236,850.455,843.875,0.000,0.000,0
1507101509.864,852.100,792.881,847.165,853.745,0.000,0.000,0
1507101509.864,845.520,797.815,852.100,848.810,0.000,0.000,0
1507101509.864,843.875,796.170,850.455,850.455,0.000,0.000,0
1507101509.864,847.165,786.301,850.455,853.745,0.000,0.000,0
1507101509.864,848.810,779.721,848.810,857.035,0.000,0.000,0
1507101509.864,845.520,779.721,847.165,845.520,0.000,0.000,0
1507101509.864,837.295,797.815,852.100,835.650,0.000,0.000,0
1507101509.864,845.520,794.526,852.100,842.230,0.000,0.000,0
1507101509.864,847.165,794.526,847.165,840.585,0.000,0.000,0
1507101509.864,845.520,786.301,845.520,842.230,0.000,0.000,0
1507101509.864,842.230,783.011,842.230,842.230,0.000,0.000,0
1507101509.864,830.715,794.526,847.165,837.295,0.000,0.000,0
1507101509.864,838.940,791.236,848.810,845.520,0.000,0.000,0
1507101509.932,852.100,789.591,847.165,852.100,0.000,0.000,0
1507101509.932,848.810,794.526,845.520,850.455,0.000,0.000,0
1507101509.932,842.230,794.526,845.520,840.585,0.000,0.000,0
1507101509.932,845.520,787.946,843.875,845.520,0.000,0.000,0
1507101509.932,848.810,791.236,847.165,843.875,0.000,0.000,0
1507101509.932,853.745,789.591,845.520,845.520,0.000,0.000,0
1507101509.932,840.585,797.815,847.165,838.940,0.000,0.000,0
1507101509.932,837.295,799.460,850.455,838.940,0.000,0.000,0
1507101509.932,840.585,789.591,847.165,835.650,0.000,0.000,0
1507101509.932,852.100,787.946,845.520,847.165,0.000,0.000,0
1507101509.932,853.745,787.946,847.165,850.455,0.000,0.000,0
1507101509.932,845.520,789.591,850.455,847.165,0.000,0.000,0
1507101509.932,845.520,792.881,847.165,845.520,0.000,0.000,0
1507101509.932,840.585,784.656,848.810,832.360,0.000,0.000,0
1507101509.932,847.165,784.656,843.875,842.230,0.000,0.000,0
1507101509.932,837.295,794.526,847.165,843.875,0.000,0.000,0
1507101510.014,829.070,796.170,848.810,837.295,0.000,0.000,0
1507101510.014,834.005,794.526,845.520,827.425,0.000,0.000,0
1507101510.014,835.650,784.656,845.520,832.360,0.000,0.000,0
1507101510.014,837.295,791.236,845.520,825.780,0.000,0.000,0
1507101510.014,842.230,789.591,848.810,843.875,0.000,0.000,0
1507101510.014,840.585,796.170,848.810,838.940,0.000,0.000,0
1507101510.014,848.810,797.815,845.520,832.360,0.000,0.000,0
1507101510.014,843.875,792.881,845.520,838.940,0.000,0.000,0
1507101510.014,838.940,796.170,848.810,837.295,0.000,0.000,0
1507101510.014,842.230,792.881,847.165,847.165,0.000,0.000,0
1507101510.014,840.585,784.656,845.520,842.230,0.000,0.000,0
1507101510.014,840.585,786.301,845.520,838.940,0.000,0.000,0
1507101510.014,835.650,791.236,847.165,842.230,0.000,0.000,0
1507101510.014,835.650,792.881,842.230,838.940,0.000,0.000,0
1507101510.014,837.295,794.526,845.520,837.295,0.000,0.000,0
1507101510.014,838.940,789.591,843.875,829.070,0.000,0.000,0
1507101510.082,843.875,794.526,843.875,834.005,0.000,0.000,0
1507101510.082,834.005,792.881,848.810,829.070,0.000,0.000,0
1507101510.082,842.230,791.236,848.810,838.940,0.000,0.000,0
1507101510.082,845.520,787.946,847.165,843.875,0.000,0.000,0
1507101510.082,845.520,779.721,847.165,838.940,0.000,0.000,0
1507101510.082,838.940,791.236,847.165,845.520,0.000,0.000,0
1507101510.082,840.585,794.526,847.165,847.165,0.000,0.000,0
1507101510.082,838.940,796.170,845.520,847.165,0.000,0.000,0
1507101510.082,838.940,789.591,845.520,834.005,0.000,0.000,0
1507101510.082,835.650,779.721,847.165,842.230,0.000,0.000,0
1507101510.082,830.715,786.301,850.455,837.295,0.000,0.000,0
1507101510.082,840.585,789.591,847.165,847.165,0.000,0.000,0
1507101510.082,843.875,791.236,845.520,850.455,0.000,0.000,0
1507101510.082,847.165,794.526,842.230,843.875,0.000,0.000,0
1507101510.082,837.295,792.881,845.520,842.230,0.000,0.000,0
1507101510.082,842.230,792.881,847.165,850.455,0.000,0.000,0
1507101510.082,843.875,787.946,845.520,847.165,0.000,0.000,0
1507101510.164,845.520,784.656,845.520,847.165,0.000,0.000,0
1507101510.164,840.585,786.301,845.520,840.585,0.000,0.000,0
1507101510.164,843.875,786.301,845.520,843.875,0.000,0.000,0
1507101510.164,842.230,797.815,845.520,830.715,0.000,0.000,0
1507101510.164,848.810,792.881,845.520,837.295,0.000,0.000,0
1507101510.164,847.165,792.881,845.520,838.940,0.000,0.000,0
1507101510.164,835.650,801.105,850.455,827.425,0.000,0.000,0
1507101510.164,840.585,792.881,850.455,840.585,0.000,0.000,0
1507101510.164,845.520,792.881,847.165,843.875,0.000,0.000,0
1507101510.164,847.165,784.656,848.810,840.585,0.000,0.000,0
1507101510.164,840.585,786.301,850.455,840.585,0.000,0.000,0
1507101510.164,840.585,797.815,848.810,835.650,0.000,0.000,0
1507101510.164,837.295,796.170,848.810,834.005,0.000,0.000,0
1507101510.164,847.165,794.526,848.810,845.520,0.000,0.000,0
1507101510.164,850.455,791.236,848.810,852.100,0.000,0.000,0
1507101510.164,843.875,792.881,850.455,842.230,0.000,0.000,0
1507101510.266,840.585,787.946,848.810,845.520,0.000,0.000,0
1507101510.266,843.875,786.301,845.520,847.165,0.000,0.000,0
1507101510.266,845.520,784.656,845.520,843.875,0.000,0.000,0
1507101510.266,847.165,787.946,850.455,848.810,0.000,0.000,0
1507101510.266,843.875,794.526,852.100,850.455,0.000,0.000,0
1507101510.266,842.230,797.815,847.165,838.940,0.000,0.000,0
1507101510.266,853.745,789.591,845.520,852.100,0.000,0.000,0
1507101510.266,847.165,791.236,847.165,853.745,0.000,0.000,0
1507101510.266,845.520,787.946,852.100,842.230,0.000,0.000,0
1507101510.266,852.100,786.301,847.165,852.100,0.000,0.000,0
1507101510.266,847.165,783.011,847.165,842.230,0.000,0.000,0
1507101510.266,853.745,789.591,845.520,848.810,0.000,0.000,0
1507101510.266,853.745,797.815,845.520,848.810,0.000,0.000,0
1507101510.266,845.520,786.301,847.165,850.455,0.000,0.000,0
1507101510.266,843.875,784.656,847.165,848.810,0.000,0.000,0
1507101510.266,848.810,789.591,845.520,843.875,0.000,0.000,0
1507101510.314,834.005,789.591,847.165,842.230,0.000,0.000,0
1507101510.314,845.520,791.236,847.165,847.165,0.000,0.000,0
1507101510.314,848.810,784.656,847.165,850.455,0.000,0.000,0
1507101510.314,850.455,779.721,847.165,847.165,0.000,0.000,0
1507101510.314,853.745,787.946,850.455,852.100,0.000,0.000,0
1507101510.314,845.520,792.881,852.100,855.390,0.000,0.000,0
1507101510.314,842.230,787.946,850.455,848.810,0.000,0.000,0
1507101510.314,842.230,789.591,850.455,848.810,0.000,0.000,0
1507101510.314,848.810,791.236,848.810,852.100,0.000,0.000,0
1507101510.314,843.875,792.881,848.810,848.810,0.000,0.000,0
1507101510.314,845.520,784.656,852.100,858.680,0.000,0.000,0
1507101510.314,842.230,781.366,850.455,853.745,0.000,0.000,0
1507101510.314,847.165,787.946,847.165,847.165,0.000,0.000,0
1507101510.314,855.390,787.946,848.810,857.035,0.000,0.000,0
1507101510.314,845.520,789.591,848.810,843.875,0.000,0.000,0
1507101510.314,847.165,789.591,850.455,845.520,0.000,0.000,0
1507101510.383,840.585,789.591,847.165,834.005,0.000,0.000,0
1507101510.383,845.520,796.170,845.520,835.650,0.000,0.000,0
1507101510.383,845.520,787.946,850.455,845.520,0.000,0.000,0
1507101510.383,843.875,789.591,850.455,848.810,0.000,0.000,0
1507101510.383,850.455,791.236,848.810,850.455,0.000,0.000,0
1507101510.383,842.230,787.946,843.875,832.360,0.000,0.000,0
1507101510.383,850.455,794.526,845.520,847.165,0.000,0.000,0
1507101510.383,845.520,787.946,850.455,848.810,0.000,0.000,0
1507101510.383,845.520,787.946,847.165,843.875,0.000,0.000,0
1507101510.383,847.165,791.236,847.165,840.585,0.000,0.000,0
1507101510.383,848.810,796.170,843.875,837.295,0.000,0.000,0
1507101510.383,843.875,792.881,847.165,830.715,0.000,0.000,0
1507101510.383,845.520,794.526,848.810,842.230,0.000,0.000,0
1507101510.383,847.165,791.236,847.165,845.520,0.000,0.000,0
1507101510.383,847.165,783.011,845.520,838.940,0.000,0.000,0
1507101510.383,843.875,784.656,848.810,838.940,0.000,0.000,0
1507101510.447,845.520,794.526,848.810,842.230,0.000,0.000,0
1507101510.447,847.165,789.591,845.520,845.520,0.000,0.000,0
1507101510.447,845.520,796.170,847.165,842.230,0.000,0.000,0
1507101510.447,850.455,796.170,850.455,847.165,0.000,0.000,0
1507101510.447,848.810,794.526,850.455,850.455,0.000,0.000,0
1507101510.447,847.165,796.170,847.165,842.230,0.000,0.000,0
1507101510.447,852.100,792.881,843.875,847.165,0.000,0.000,0
1507101510.447,843.875,787.946,845.520,845.520,0.000,0.000,0
1507101510.447,840.585,789.591,848.810,842.230,0.000,0.000,0
1507101510.447,843.875,786.301,850.455,848.810,0.000,0.000,0
1507101510.447,835.650,794.526,852.100,838.940,0.000,0.000,0
1507101510.447,845.520,794.526,850.455,843.875,0.000,0.000,0
1507101510.447,840.585,794.526,850.455,837.295,0.000,0.000,0
1507101510.447,842.230,792.881,852.100,840.585,0.000,0.000,0
1507101510.447,850.455,791.236,848.810,848.810,0.000,0.000,0
1507101510.447,848.810,787.946,848.810,838.940,0.000,0.000,0
1507101510.529,848.810,786.301,848.810,845.520,0.000,0.000,0
1507101510.529,838.940,797.815,848.810,840.585,0.000,0.000,0
1507101510.529,848.810,797.815,848.810,845.520,0.000,0.000,0
1507101510.529,852.100,794.526,850.455,848.810,0.000,0.000,0
1507101510.529,852.100,794.526,848.810,842.230,0.000,0.000,0
1507101510.529,850.455,796.170,850.455,848.810,0.000,0.000,0
1507101510.529,845.520,797.815,850.455,850.455,0.000,0.000,0
1507101510.529,850.455,799.460,847.165,845.520,0.000,0.000,0
1507101510.529,853.745,796.170,847.165,845.520,0.000,0.000,0
1507101510.529,855.390,789.591,850.455,842.230,0.000,0.000,0
1507101510.529,852.100,792.881,848.810,847.165,0.000,0.000,0
1507101510.529,853.745,796.170,850.455,857.035,0.000,0.000,0
1507101510.529,852.100,796.170,852.100,848.810,0.000,0.000,0
1507101510.529,853.745,794.526,850.455,850.455,0.000,0.000,0
1507101510.529,847.165,792.881,852.100,853.745,0.000,0.000,0
1507101510.529,843.875,789.591,852.100,852.100,0.000,0.000,0
1507101510.597,838.940,787.946,852.100,843.875,0.000,0.000,0
1507101510.597,843.875,792.881,850.455,845.520,0.000,0.000,0
1507101510.597,840.585,799.460,852.100,845.520,0.000,0.000,0
1507101510.597,845.520,801.105,850.455,848.810,0.000,0.000,0
1507101510.597,845.520,797.815,845.520,845.520,0.000,0.000,0
1507101510.597,838.940,792.881,847.165,832.360,0.000,0.000,0
1507101510.597,848.810,792.881,847.165,837.295,0.000,0.000,0
1507101510.597,845.520,794.526,848.810,843.875,0.000,0.000,0
1507101510.597,842.230,787.946,852.100,837.295,0.000,0.000,0
1507101510.597,845.520,789.591,850.455,843.875,0.000,0.000,0
1507101510.597,840.585,794.526,847.165,829.070,0.000,0.000,0
1507101510.597,832.360,796.170,850.455,829.070,0.000,0.000,0
1507101510.597,835.650,794.526,848.810,838.940,0.000,0.000,0
1507101510.597,835.650,794.526,848.810,829.070,0.000,0.000,0
1507101510.597,840.585,791.236,847.165,832.360,0.000,0.000,0
1507101510.597,842.230,786.301,848.810,835.650,0.000,0.000,0
1507101510.663,842.230,792.881,852.100,845.520,0.000,0.000,0
1507101510.663,843.875,792.881,850.455,852.100,0.000,0.000,0
1507101510.663,842.230,789.591,845.520,848.810,0.000,0.000,0
1507101510.664,840.585,789.591,845.520,848.810,0.000,0.000,0
1507101510.664,834.005,784.656,848.810,845.520,0.000,0.000,0
1507101510.664,834.005,791.236,848.810,838.940,0.000,0.000,0
1507101510.664,840.585,791.236,850.455,850.455,0.000,0.000,0
1507101510.664,837.295,791.236,848.810,837.295,0.000,0.000,0
1507101510.664,838.940,789.591,852.100,838.940,0.000,0.000,0
1507101510.665,842.230,792.881,853.745,845.520,0.000,0.000,0
1507101510.665,848.810,794.526,850.455,847.165,0.000,0.000,0
1507101510.665,848.810,789.591,850.455,842.230,0.000,0.000,0
1507101510.665,848.810,789.591,848.810,848.810,0.000,0.000,0
1507101510.665,843.875,796.170,852.100,845.520,0.000,0.000,0
1507101510.665,847.165,796.170,852.100,840.585,0.000,0.000,0
1507101510.665,847.165,796.170,852.100,848.810,0.000,0.000,0
1507101510.665,848.810,786.301,852.100,843.875,0.000,0.000,0
1507101510.746,843.875,787.946,852.100,837.295,0.000,0.000,0
1507101510.746,843.875,799.460,850.455,843.875,0.000,0.000,0
1507101510.746,847.165,797.815,848.810,837.295,0.000,0.000,0
1507101510.746,852.100,787.946,845.520,837.295,0.000,0.000,0
1507101510.746,850.455,779.721,843.875,840.585,0.000,0.000,0
1507101510.746,837.295,796.170,848.810,830.715,0.000,0.000,0
1507101510.746,850.455,792.881,852.100,845.520,0.000,0.000,0
1507101510.746,843.875,801.105,850.455,840.585,0.000,0.000,0
1507101510.746,850.455,802.750,850.455,850.455,0.000,0.000,0
1507101510.746,847.165,791.236,852.100,852.100,0.000,0.000,0
1507101510.746,845.520,797.815,852.100,845.520,0.000,0.000,0
1507101510.746,847.165,801.105,853.745,845.520,0.000,0.000,0
1507101510.746,857.035,799.460,850.455,847.165,0.000,0.000,0
1507101510.746,853.745,787.946,852.100,847.165,0.000,0.000,0
1507101510.746,843.875,789.591,850.455,847.165,0.000,0.000,0
1507101510.746,845.520,789.591,847.165,840.585,0.000,0.000,0
1507101510.812,855.390,791.236,847.165,837.295,0.000,0.000,0
1507101510.812,852.100,799.460,847.165,835.650,0.000,0.000,0
1507101510.812,853.745,797.815,848.810,855.390,0.000,0.000,0
1507101510.812,853.745,799.460,850.455,847.165,0.000,0.000,0
1507101510.812,853.745,801.105,852.100,848.810,0.000,0.000,0
1507101510.812,857.035,799.460,848.810,845.520,0.000,0.000,0
1507101510.812,852.100,791.236,850.455,847.165,0.000,0.000,0
1507101510.812,842.230,791.236,850.455,842.230,0.000,0.000,0
1507101510.812,847.165,789.591,847.165,847.165,0.000,0.000,0
1507101510.812,845.520,797.815,847.165,842.230,0.000,0.000,0
1507101510.812,848.810,796.170,852.100,843.875,0.000,0.000,0
1507101510.812,850.455,792.881,850.455,853.745,0.000,0.000,0
1507101510.812,845.520,796.170,848.810,853.745,0.000,0.000,0
1507101510.812,848.810,799.460,850.455,848.810,0.000,0.000,0
1507101510.812,850.455,801.105,848.810,850.455,0.000,0.000,0
1507101510.812,843.875,791.236,850.455,848.810,0.000,0.000,0
1507101510.908,843.875,789.591,852.100,845.520,0.000,0.000,0
1507101510.908,840.585,792.881,850.455,842.230,0.000,0.000,0
1507101510.908,847.165,794.526,848.810,842.230,0.000,0.000,0
1507101510.908,847.165,801.105,848.810,835.650,0.000,0.000,0
1507101510.908,847.165,799.460,850.455,845.520,0.000,0.000,0
1507101510.908,842.230,794.526,850.455,848.810,0.000,0.000,0
1507101510.908,843.875,794.526,852.100,842.230,0.000,0.000,0
1507101510.908,852.100,791.236,850.455,850.455,0.000,0.000,0
1507101510.908,845.520,791.236,850.455,845.520,0.000,0.000,0
1507101510.908,850.455,786.301,852.100,848.810,0.000,0.000,0
1507101510.908,848.810,784.656,850.455,853.745,0.000,0.000,0
1507101510.908,848.810,797.815,850.455,848.810,0.000,0.000,0
1507101510.908,843.875,799.460,852.100,843.875,0.000,0.000,0
1507101510.908,847.165,799.460,853.745,848.810,0.000,0.000,0
1507101510.908,842.230,799.460,848.810,847.165,0.000,0.000,0
1507101510.908,845.520,791.236,848.810,845.520,0.000,0.000,0
1507101510.962,850.455,789.591,845.520,845.520,0.000,0.000,0
1507101510.962,847.165,796.170,848.810,850.455,0.000,0.000,0
1507101510.962,847.165,796.170,850.455,852.100,0.000,0.000,0
1507101510.962,848.810,794.526,848.810,848.810,0.000,0.000,0
1507101510.962,853.745,791.236,848.810,850.455,0.000,0.000,0
1507101510.962,843.875,789.591,848.810,847.165,0.000,0.000,0
1507101510.962,842.230,787.946,852.100,848.810,0.000,0.000,0
1507101510.962,847.165,789.591,848.810,855.390,0.000,0.000,0
1507101510.962,838.940,792.881,845.520,847.165,0.000,0.000,0
1507101510.962,835.650,781.366,847.165,845.520,0.000,0.000,0
1507101510.962,835.650,784.656,847.165,853.745,0.000,0.000,0
1507101510.962,834.005,797.815,852.100,848.810,0.000,0.000,0
1507101510.962,842.230,796.170,848.810,840.585,0.000,0.000,0
1507101510.962,848.810,799.460,847.165,843.875,0.000,0.000,0
1507101510.962,837.295,796.170,850.455,835.650,0.000,0.000,0
1507101510.962,845.520,791.236,848.810,847.165,0.000,0.000,0
1507101511.027,847.165,794.526,850.455,848.810,0.000,0.000,0
1507101511.027,853.745,794.526,850.455,842.230,0.000,0.000,0
1507101511.027,850.455,789.591,850.455,840.585,0.000,0.000,0
1507101511.027,847.165,791.236,852.100,845.520,0.000,0.000,0
1507101511.027,847.165,797.815,850.455,843.875,0.000,0.000,0
1507101511.027,850.455,794.526,850.455,848.810,0.000,0.000,0
1507101511.027,850.455,799.460,850.455,848.810,0.000,0.000,0
1507101511.027,840.585,799.460,853.745,847.165,0.000,0.000,0
1507101511.027,848.810,794.526,852.100,853.745,0.000,0.000,0
1507101511.027,845.520,792.881,850.455,842.230,0.000,0.000,0
1507101511.027,850.455,786.301,845.520,845.520,0.000,0.000,0
1507101511.027,845.520,792.881,848.810,850.455,0.000,0.000,0
1507101511.027,848.810,802.750,852.100,861.970,0.000,0.000,0
1507101511.027,847.165,797.815,850.455,865.260,0.000,0.000,0
1507101511.027,843.875,797.815,847.165,857.035,0.000,0.000,0
1507101511.027,840.585,792.881,847.165,845.520,0.000,0.000,0
1507101511.112,840.585,794.526,850.455,837.295,0.000,0.000,0
1507101511.112,843.875,799.460,850.455,838.940,0.000,0.000,0
1507101511.112,848.810,797.815,852.100,837.295,0.000,0.000,0
1507101511.112,857.035,791.236,848.810,848.810,0.000,0.000,0
1507101511.112,850.455,781.366,850.455,850.455,0.000,0.000,0
1507101511.112,848.810,799.460,852.100,848.810,0.000,0.000,0
1507101511.112,855.390,804.395,848.810,848.810,0.000,0.000,0
1507101511.112,853.745,806.040,848.810,853.745,0.000,0.000,0
1507101511.112,847.165,806.040,850.455,848.810,0.000,0.000,0
1507101511.112,843.875,796.170,853.745,850.455,0.000,0.000,0
1507101511.112,843.875,789.591,850.455,847.165,0.000,0.000,0
1507101511.112,843.875,789.591,848.810,837.295,0.000,0.000,0
1507101511.112,847.165,792.881,848.810,840.585,0.000,0.000,0
1507101511.112,842.230,794.526,850.455,843.875,0.000,0.000,0
1507101511.112,840.585,792.881,850.455,842.230,0.000,0.000,0
1507101511.112,845.520,799.460,848.810,847.165,0.000,0.000,0
1507101511.179,845.520,796.170,847.165,840.585,0.000,0.000,0
1507101511.179,843.875,799.460,847.165,842.230,0.000,0.000,0
1507101511.179,842.230,797.815,850.455,843.875,0.000,0.000,0
1507101511.179,840.585,789.591,847.165,838.940,0.000,0.000,0
1507101511.179,852.100,789.591,847.165,847.165,0.000,0.000,0
1507101511.179,842.230,796.170,847.165,835.650,0.000,0.000,0
1507101511.179,847.165,802.750,850.455,847.165,0.000,0.000,0
1507101511.179,843.875,799.460,848.810,848.810,0.000,0.000,0
1507101511.179,840.585,796.170,848.810,830.715,0.000,0.000,0
1507101511.179,845.520,789.591,847.165,837.295,0.000,0.000,0
1507101511.179,845.520,791.236,848.810,842.230,0.000,0.000,0
1507101511.179,845.520,792.881,848.810,848.810,0.000,0.000,0
1507101511.179,847.165,791.236,847.165,850.455,0.000,0.000,0
1507101511.179,848.810,799.460,847.165,847.165,0.000,0.000,0
1507101511.179,843.875,799.460,845.520,838.940,0.000,0.000,0
1507101511.179,843.875,801.105,847.165,847.165,0.000,0.000,0
1507101511.263,840.585,794.526,845.520,852.100,0.000,0.000,0
1507101511.263,840.585,796.170,847.165,842.230,0.000,0.000,0
1507101511.263,852.100,796.170,848.810,845.520,0.000,0.000,0
1507101511.263,847.165,794.526,850.455,845.520,0.000,0.000,0
1507101511.263,843.875,794.526,850.455,838.940,0.000,0.000,0
1507101511.263,842.230,792.881,847.165,845.520,0.000,0.000,0
1507101511.263,842.230,791.236,843.875,834.005,0.000,0.000,0
1507101511.263,848.810,799.460,845.520,830.715,0.000,0.000,0
1507101511.263,847.165,799.460,848.810,843.875,0.000,0.000,0
1507101511.263,847.165,797.815,848.810,832.360,0.000,0.000,0
1507101511.263,855.390,801.105,847.165,842.230,0.000,0.000,0
1507101511.263,852.100,796.170,845.520,845.520,0.000,0.000,0
1507101511.263,845.520,792.881,848.810,838.940,0.000,0.000,0
1507101511.263,842.230,799.460,848.810,835.650,0.000,0.000,0
1507101511.263,845.520,796.170,847.165,842.230,0.000,0.000,0
1507101511.263,847.165,796.170,848.810,842.230,0.000,0.000,0
1507101511.263,842.230,794.526,847.165,840.585,0.000,0.000,0
1507101511.329,838.940,792.881,847.165,845.520,0.000,0.000,0
1507101511.329,838.940,796.170,848.810,840.585,0.000,0.000,0
1507101511.329,850.455,791.236,845.520,845.520,0.000,0.000,0
1507101511.329,857.035,791.236,845.520,857.035,0.000,0.000,0
1507101511.329,843.875,796.170,852.100,848.810,0.000,0.000,0
1507101511.329,842.230,799.460,850.455,843.875,0.000,0.000,0
1507101511.329,845.520,801.105,848.810,842.230,0.000,0.000,0
1507101511.329,850.455,801.105,848.810,842.230,0.000,0.000,0
1507101511.329,843.875,802.750,852.100,838.940,0.000,0.000,0
1507101511.329,845.520,801.105,852.100,845.520,0.000,0.000,0
1507101511.329,842.230,806.040,852.100,837.295,0.000,0.000,0
1507101511.329,843.875,792.881,850.455,842.230,0.000,0.000,0
1507101511.329,845.520,787.946,848.810,845.520,0.000,0.000,0
1507101511.329,835.650,796.170,852.100,838.940,0.000,0.000,0
1507101511.329,832.360,797.815,853.745,838.940,0.000,0.000,0
1507101511.329,842.230,797.815,852.100,845.520,0.000,0.000,0
1507101511.393,843.875,796.170,850.455,842.230,0.000,0.000,0
1507101511.393,838.940,797.815,850.455,848.810,0.000,0.000,0
1507101511.393,842.230,802.750,852.100,848.810,0.000,0.000,0
1507101511.393,847.165,796.170,850.455,848.810,0.000,0.000,0
1507101511.393,853.745,794.526,850.455,850.455,0.000,0.000,0
1507101511.393,848.810,797.815,850.455,850.455,0.000,0.000,0
1507101511.393,843.875,801.105,850.455,847.165,0.000,0.000,0
1507101511.393,840.585,802.750,850.455,837.295,0.000,0.000,0
1507101511.393,852.100,799.460,850.455,845.520,0.000,0.000,0
1507101511.393,863.615,794.526,848.810,845.520,0.000,0.000,0
1507101511.393,855.390,797.815,850.455,845.520,0.000,0.000,0
1507101511.393,863.615,802.750,852.100,848.810,0.000,0.000,0
1507101511.393,861.970,799.460,850.455,847.165,0.000,0.000,0
1507101511.393,861.970,797.815,850.455,847.165,0.000,0.000,0
1507101511.393,861.970,804.395,852.100,852.100,0.000,0.000,0
1507101511.393,855.390,797.815,850.455,850.455,0.000,0.000,0
1507101511.477,855.390,804.395,850.455,847.165,0.000,0.000,0
1507101511.477,857.035,802.750,850.455,843.875,0.000,0.000,0
1507101511.477,853.745,796.170,847.165,847.165,0.000,0.000,0
1507101511.477,850.455,801.105,852.100,850.455,0.000,0.000,0
1507101511.477,850.455,801.105,850.455,848.810,0.000,0.000,0
1507101511.477,847.165,802.750,847.165,840.585,0.000,0.000,0
1507101511.477,855.390,807.685,848.810,847.165,0.000,0.000,0
1507101511.477,843.875,804.395,852.100,840.585,0.000,0.000,0
1507101511.477,840.585,802.750,852.100,837.295,0.000,0.000,0
1507101511.477,848.810,797.815,850.455,845.520,0.000,0.000,0
1507101511.477,848.810,797.815,848.810,845.520,0.000,0.000,0
1507101511.477,845.520,806.040,850.455,842.230,0.000,0.000,0
1507101511.477,847.165,804.395,852.100,847.165,0.000,0.000,0
1507101511.477,840.585,804.395,848.810,837.295,0.000,0.000,0
1507101511.477,848.810,801.105,848.810,837.295,0.000,0.000,0
1507101511.477,860.325,797.815,850.455,852.100,0.000,0.000,0
1507101511.543,850.455,797.815,855.390,847.165,0.000,0.000,0
1507101511.543,850.455,799.460,853.745,842.230,0.000,0.000,0
1507101511.543,848.810,801.105,853.745,845.520,0.000,0.000,0
1507101511.543,847.165,797.815,850.455,837.295,0.000,0.000,0
1507101511.543,852.100,806.040,852.100,843.875,0.000,0.000,0
1507101511.543,848.810,799.460,855.390,842.230,0.000,0.000,0
1507101511.543,853.745,797.815,850.455,847.165,0.000,0.000,0
1507101511.543,847.165,802.750,853.745,842.230,0.000,0.000,0
1507101511.543,852.100,802.750,852.100,842.230,0.000,0.000,0
1507101511.543,840.585,799.460,855.390,845.520,0.000,0.000,0
1507101511.543,840.585,791.236,857.035,837.295,0.000,0.000,0
1507101511.543,855.390,797.815,852.100,845.520,0.000,0.000,0
1507101511.543,847.165,802.750,852.100,838.940,0.000,0.000,0
1507101511.543,848.810,807.685,852.100,848.810,0.000,0.000,0
1507101511.543,842.230,806.040,852.100,840.585,0.000,0.000,0
1507101511.543,843.875,799.460,847.165,838.940,0.000,0.000,0
1507101511.627,848.810,797.815,848.810,837.295,0.000,0.000,0
1507101511.627,847.165,806.040,850.455,834.005,0.000,0.000,0
1507101511.627,847.165,806.040,852.100,840.585,0.000,0.000,0
1507101511.627,847.165,797.815,853.745,842.230,0.000,0.000,0
1507101511.627,852.100,799.460,848.810,838.940,0.000,0.000,0
1507101511.627,853.745,796.170,848.810,845.520,0.000,0.000,0
1507101511.627,847.165,796.170,853.745,843.875,0.000,0.000,0
1507101511.627,847.165,799.460,853.745,843.875,0.000,0.000,0
1507101511.627,850.455,797.815,852.100,842.230,0.000,0.000,0
1507101511.627,853.745,801.105,848.810,852.100,0.000,0.000,0
1507101511.627,843.875,802.750,852.100,847.165,0.000,0.000,0
1507101511.627,848.810,806.040,853.745,848.810,0.000,0.000,0
1507101511.627,843.875,799.460,853.745,845.520,0.000,0.000,0
1507101511.627,850.455,802.750,848.810,845.520,0.000,0.000,0
1507101511.627,853.745,797.815,845.520,853.745,0.000,0.000,0
1507101511.627,843.875,792.881,847.165,847.165,0.000,0.000,0
1507101511.696,848.810,797.815,848.810,853.745,0.000,0.000,0
1507101511.696,850.455,791.236,850.455,853.745,0.000,0.000,0
1507101511.696,850.455,801.105,847.165,843.875,0.000,0.000,0
1507101511.696,848.810,806.040,848.810,843.875,0.000,0.000,0
1507101511.696,842.230,799.460,848.810,842.230,0.000,0.000,0
1507101511.696,843.875,796.170,848.810,842.230,0.000,0.000,0
1507101511.696,848.810,789.591,845.520,848.810,0.000,0.000,0
1507101511.696,843.875,799.460,843.875,842.230,0.000,0.000,0
1507101511.696,838.940,799.460,848.810,842.230,0.000,0.000,0
1507101511.696,834.005,804.395,850.455,838.940,0.000,0.000,0
1507101511.696,843.875,799.460,847.165,838.940,0.000,0.000,0
1507101511.696,850.455,791.236,847.165,843.875,0.000,0.000,0
1507101511.696,845.520,794.526,845.520,850.455,0.000,0.000,0
1507101511.696,842.230,794.526,848.810,845.520,0.000,0.000,0
1507101511.696,840.585,796.170,847.165,845.520,0.000,0.000,0
1507101511.696,842.230,801.105,845.520,837.295,0.000,0.000,0
1507101511.759,848.810,799.460,847.165,843.875,0.000,0.000,0
1507101511.759,845.520,796.170,850.455,850.455,0.000,0.000,0
1507101511.759,842.230,796.170,848.810,852.100,0.000,0.000,0
1507101511.759,837.295,792.881,848.810,842.230,0.000,0.000,0
1507101511.759,837.295,797.815,845.520,845.520,0.000,0.000,0
1507101511.759,837.295,804.395,850.455,847.165,0.000,0.000,0
1507101511.759,843.875,802.750,852.100,857.035,0.000,0.000,0
1507101511.759,843.875,801.105,848.810,848.810,0.000,0.000,0
1507101511.759,842.230,796.170,850.455,840.585,0.000,0.000,0
1507101511.759,842.230,794.526,848.810,847.165,0.000,0.000,0
1507101511.759,835.650,799.460,848.810,835.650,0.000,0.000,0
1507101511.759,840.585,799.460,848.810,850.455,0.000,0.000,0
1507101511.759,842.230,794.526,845.520,845.520,0.000,0.000,0
1507101511.759,840.585,801.105,847.165,843.875,0.000,0.000,0
1507101511.759,842.230,797.815,850.455,853.745,0.000,0.000,0
1507101511.759,842.230,802.750,848.810,847.165,0.000,0.000,0
1507101511.843,845.520,806.040,852.100,850.455,0.000,0.000,0
1507101511.843,855.390,799.460,850.455,857.035,0.000,0.000,0
1507101511.843,845.520,799.460,853.745,853.745,0.000,0.000,0
1507101511.843,840.585,799.460,853.745,858.680,0.000,0.000,0
1507101511.843,843.875,792.881,852.100,855.390,0.000,0.000,0
1507101511.843,850.455,789.591,852.100,857.035,0.000,0.000,0
1507101511.843,845.520,801.105,852.100,850.455,0.000,0.000,0
1507101511.843,847.165,804.395,853.745,857.035,0.000,0.000,0
1507101511.843,842.230,806.040,852.100,843.875,0.000,0.000,0
1507101511.843,847.165,804.395,850.455,850.455,0.000,0.000,0
1507101511.843,848.810,796.170,847.165,848.810,0.000,0.000,0
1507101511.843,847.165,797.815,852.100,847.165,0.000,0.000,0
1507101511.843,842.230,804.395,852.100,840.585,0.000,0.000,0
1507101511.843,847.165,802.750,848.810,842.230,0.000,0.000,0
1507101511.843,850.455,797.815,848.810,845.520,0.000,0.000,0
1507101511.843,845.520,799.460,848.810,843.875,0.000,0.000,0
1507101511.843,848.810,797.815,852.100,847.165,0.000,0.000,0
1507101511.909,852.100,801.105,848.810,843.875,0.000,0.000,0
1507101511.909,853.745,802.750,845.520,838.940,0.000,0.000,0
1507101511.909,845.520,797.815,845.520,835.650,0.000,0.000,0
1507101511.909,848.810,801.105,845.520,837.295,0.000,0.000,0
1507101511.909,848.810,796.170,845.520,840.585,0.000,0.000,0
1507101511.909,855.390,797.815,848.810,843.875,0.000,0.000,0
1507101511.909,860.325,801.105,847.165,855.390,0.000,0.000,0
1507101511.909,853.745,804.395,850.455,848.810,0.000,0.000,0
1507101511.909,855.390,802.750,853.745,845.520,0.000,0.000,0
1507101511.909,860.325,792.881,852.100,847.165,0.000,0.000,0
1507101511.909,860.325,796.170,850.455,850.455,0.000,0.000,0
1507101511.909,852.100,806.040,847.165,850.455,0.000,0.000,0
1507101511.909,845.520,804.395,848.810,848.810,0.000,0.000,0
1507101511.909,842.230,806.040,847.165,837.295,0.000,0.000,0
1507101511.909,847.165,797.815,847.165,835.650,0.000,0.000,0
1507101511.909,853.745,796.170,850.455,845.520,0.000,0.000,0
1507101511.992,847.165,801.105,850.455,842.230,0.000,0.000,0
1507101511.992,847.165,797.815,850.455,838.940,0.000,0.000,0
1507101511.992,855.390,801.105,848.810,847.165,0.000,0.000,0
1507101511.992,853.745,796.170,847.165,837.295,0.000,0.000,0
1507101511.992,853.745,794.526,847.165,848.810,0.000,0.000,0
1507101511.992,848.810,802.750,848.810,848.810,0.000,0.000,0
1507101511.992,842.230,802.750,848.810,832.360,0.000,0.000,0
1507101511.992,850.455,806.040,845.520,842.230,0.000,0.000,0
1507101511.992,845.520,806.040,848.810,835.650,0.000,0.000,0
1507101511.992,843.875,801.105,850.455,837.295,0.000,0.000,0
1507101511.992,840.585,797.815,850.455,835.650,0.000,0.000,0
1507101511.992,840.585,796.170,847.165,835.650,0.000,0.000,0
1507101511.992,838.940,797.815,843.875,834.005,0.000,0.000,0
1507101511.992,837.295,797.815,845.520,838.940,0.000,0.000,0
1507101511.992,838.940,797.815,845.520,834.005,0.000,0.000,0
1507101511.992,847.165,799.460,848.810,842.230,0.000,0.000,0
1507101512.059,858.680,801.105,848.810,855.390,0.000,0.000,0
1507101512.059,845.520,799.460,850.455,842.230,0.000,0.000,0
1507101512.059,845.520,802.750,852.100,855.390,0.000,0.000,0
1507101512.059,843.875,801.105,853.745,848.810,0.000,0.000,0
1507101512.059,847.165,802.750,852.100,838.940,0.000,0.000,0
1507101512.059,852.100,804.395,847.165,850.455,0.000,0.000,0
1507101512.059,843.875,802.750,850.455,842.230,0.000,0.000,0
1507101512.059,848.810,802.750,848.810,845.520,0.000,0.000,0
1507101512.059,843.875,802.750,848.810,840.585,0.000,0.000,0
1507101512.059,853.745,801.105,845.520,837.295,0.000,0.000,0
1507101512.059,853.745,802.750,848.810,843.875,0.000,0.000,0
1507101512.059,842.230,809.330,850.455,837.295,0.000,0.000,0
1507101512.059,848.810,807.685,850.455,843.875,0.000,0.000,0
1507101512.059,845.520,802.750,852.100,847.165,0.000,0.000,0
1507101512.059,843.875,797.815,848.810,842.230,0.000,0.000,0
1507101512.059,843.875,801.105,850.455,843.875,0.000,0.000,0
1507101512.124,845.520,804.395,850.455,850.455,0.000,0.000,0
1507101512.124,843.875,806.040,848.810,840.585,0.000,0.000,0
1507101512.124,843.875,799.460,845.520,834.005,0.000,0.000,0
1507101512.124,840.585,802.750,847.165,834.005,0.000,0.000,0
1507101512.124,835.650,802.750,848.810,832.360,0.000,0.000,0
1507101512.124,838.940,806.040,848.810,835.650,0.000,0.000,0
1507101512.124,843.875,797.815,845.520,848.810,0.000,0.000,0
1507101512.124,837.295,784.656,847.165,840.585,0.000,0.000,0
1507101512.124,835.650,799.460,847.165,837.295,0.000,0.000,0
1507101512.124,845.520,806.040,848.810,847.165,0.000,0.000,0
1507101512.124,845.520,804.395,848.810,847.165,0.000,0.000,0
1507101512.124,845.520,810.975,847.165,847.165,0.000,0.000,0
1507101512.124,838.940,804.395,850.455,845.520,0.000,0.000,0
1507101512.124,832.360,806.040,848.810,838.940,0.000,0.000,0
1507101512.124,842.230,804.395,847.165,838.940,0.000,0.000,0
1507101512.124,853.745,802.750,848.810,852.100,0.000,0.000,0
1507101512.211,845.520,799.460,847.165,845.520,0.000,0.000,0
1507101512.211,843.875,796.170,852.100,845.520,0.000,0.000,0
1507101512.211,848.810,801.105,848.810,850.455,0.000,0.000,0
1507101512.211,847.165,804.395,847.165,842.230,0.000,0.000,0
1507101512.211,853.745,802.750,843.875,845.520,0.000,0.000,0
1507101512.211,835.650,804.395,848.810,838.940,0.000,0.000,0
1507101512.211,842.230,801.105,848.810,840.585,0.000,0.000,0
1507101512.211,845.520,801.105,845.520,840.585,0.000,0.000,0
1507101512.211,843.875,797.815,847.165,838.940,0.000,0.000,0
1507101512.211,843.875,799.460,847.165,847.165,0.000,0.000,0
1507101512.211,835.650,797.815,850.455,843.875,0.000,0.000,0
1507101512.211,840.585,797.815,850.455,840.585,0.000,0.000,0
1507101512.211,848.810,806.040,850.455,837.295,0.000,0.000,0
1507101512.211,850.455,804.395,848.810,840.585,0.000,0.000,0
1507101512.211,838.940,802.750,852.100,834.005,0.000,0.000,0
1507101512.211,853.745,794.526,850.455,848.810,0.000,0.000,0
1507101512.287,848.810,791.236,847.165,837.295,0.000,0.000,0
1507101512.287,848.810,802.750,847.165,837.295,0.000,0.000,0
1507101512.287,850.455,804.395,850.455,848.810,0.000,0.000,0
1507101512.287,840.585,806.040,855.390,840.585,0.000,0.000,0
1507101512.287,848.810,807.685,850.455,853.745,0.000,0.000,0
1507101512.287,848.810,804.395,847.165,845.520,0.000,0.000,0
1507101512.287,852.100,807.685,847.165,845.520,0.000,0.000,0
1507101512.287,848.810,806.040,848.810,855.390,0.000,0.000,0
1507101512.287,845.520,801.105,850.455,845.520,0.000,0.000,0
1507101512.287,855.390,792.881,850.455,845.520,0.000,0.000,0
1507101512.287,852.100,794.526,847.165,843.875,0.000,0.000,0
1507101512.287,843.875,799.460,848.810,838.940,0.000,0.000,0
1507101512.287,845.520,799.460,848.810,850.455,0.000,0.000,0
1507101512.287,842.230,806.040,850.455,847.165,0.000,0.000,0
1507101512.287,845.520,806.040,850.455,843.875,0.000,0.000,0
1507101512.287,847.165,804.395,853.745,850.455,0.000,0.000,0
1507101512.343,842.230,804.395,852.100,852.100,0.000,0.000,0
1507101512.343,838.940,799.460,848.810,848.810,0.000,0.000,0
1507101512.343,847.165,802.750,848.810,843.875,0.000,0.000,0
1507101512.343,850.455,794.526,852.100,848.810,0.000,0.000,0
1507101512.343,840.585,794.526,855.390,847.165,0.000,0.000,0
1507101512.343,845.520,799.460,853.745,855.390,0.000,0.000,0
1507101512.343,847.165,801.105,853.745,868.550,0.000,0.000,0
1507101512.343,843.875,806.040,848.810,853.745,0.000,0.000,0
1507101512.343,838.940,809.330,853.745,847.165,0.000,0.000,0
1507101512.343,835.650,810.975,853.745,843.875,0.000,0.000,0
1507101512.343,842.230,806.040,850.455,845.520,0.000,0.000,0
1507101512.343,847.165,807.685,850.455,845.520,0.000,0.000,0
1507101512.343,850.455,802.750,848.810,845.520,0.000,0.000,0
1507101512.343,843.875,801.105,852.100,835.650,0.000,0.000,0
1507101512.343,845.520,797.815,852.100,840.585,0.000,0.000,0
1507101512.343,848.810,801.105,850.455,842.230,0.000,0.000,0
1507101512.426,843.875,801.105,847.165,842.230,0.000,0.000,0
1507101512.426,843.875,797.815,850.455,840.585,0.000,0.000,0
1507101512.426,842.230,791.236,850.455,843.875,0.000,0.000,0
1507101512.426,840.585,801.105,848.810,840.585,0.000,0.000,0
1507101512.426,847.165,796.170,847.165,850.455,0.000,0.000,0
1507101512.426,842.230,810.975,852.100,843.875,0.000,0.000,0
1507101512.426,842.230,815.910,853.745,840.585,0.000,0.000,0
1507101512.426,845.520,807.685,850.455,845.520,0.000,0.000,0
1507101512.426,850.455,810.975,850.455,840.585,0.000,0.000,0
1507101512.426,850.455,802.750,845.520,845.520,0.000,0.000,0
1507101512.426,845.520,806.040,852.100,842.230,0.000,0.000,0
1507101512.426,850.455,802.750,850.455,848.810,0.000,0.000,0
1507101512.426,845.520,801.105,845.520,842.230,0.000,0.000,0
1507101512.426,850.455,802.750,845.520,840.585,0.000,0.000,0
1507101512.426,848.810,802.750,847.165,852.100,0.000,0.000,0
1507101512.426,845.520,804.395,848.810,843.875,0.000,0.000,0
1507101512.426,852.100,806.040,847.165,842.230,0.000,0.000,0
1507101512.493,853.745,807.685,845.520,847.165,0.000,0.000,0
1507101512.493,855.390,802.750,842.230,840.585,0.000,0.000,0
1507101512.493,845.520,806.040,847.165,842.230,0.000,0.000,0
1507101512.493,843.875,796.170,843.875,842.230,0.000,0.000,0
1507101512.493,845.520,804.395,845.520,834.005,0.000,0.000,0
1507101512.493,852.100,806.040,845.520,845.520,0.000,0.000,0
1507101512.493,847.165,804.395,845.520,847.165,0.000,0.000,0
1507101512.493,842.230,815.910,847.165,845.520,0.000,0.000,0
1507101512.493,845.520,809.330,845.520,848.810,0.000,0.000,0
1507101512.493,845.520,812.620,847.165,840.585,0.000,0.000,0
1507101512.493,852.100,806.040,847.165,852.100,0.000,0.000,0
1507101512.493,850.455,802.750,848.810,850.455,0.000,0.000,0
1507101512.493,857.035,806.040,848.810,852.100,0.000,0.000,0
1507101512.493,852.100,807.685,848.810,845.520,0.000,0.000,0
1507101512.493,855.390,809.330,845.520,850.455,0.000,0.000,0
1507101512.493,848.810,809.330,847.165,847.165,0.000,0.000,0
1507101512.577,845.520,809.330,848.810,850.455,0.000,0.000,0
1507101512.577,840.585,807.685,845.520,838.940,0.000,0.000,0
1507101512.577,837.295,807.685,845.520,829.070,0.000,0.000,0
1507101512.577,840.585,802.750,843.875,834.005,0.000,0.000,0
1507101512.577,838.940,802.750,847.165,838.940,0.000,0.000,0
1507101512.577,845.520,810.975,845.520,840.585,0.000,0.000,0
1507101512.577,845.520,809.330,847.165,840.585,0.000,0.000,0
1507101512.577,847.165,807.685,847.165,840.585,0.000,0.000,0
1507101512.577,843.875,810.975,848.810,837.295,0.000,0.000,0
1507101512.577,848.810,807.685,850.455,852.100,0.000,0.000,0
1507101512.577,847.165,810.975,847.165,845.520,0.000,0.000,0
1507101512.577,845.520,807.685,847.165,838.940,0.000,0.000,0
1507101512.577,842.230,809.330,850.455,840.585,0.000,0.000,0
1507101512.577,837.295,804.395,850.455,840.585,0.000,0.000,0
1507101512.577,837.295,801.105,850.455,835.650,0.000,0.000,0
1507101512.577,840.585,802.750,848.810,838.940,0.000,0.000,0
1507101512.641,845.520,801.105,848.810,843.875,0.000,0.000,0
1507101512.641,843.875,807.685,850.455,848.810,0.000,0.000,0
1507101512.641,847.165,804.395,852.100,853.745,0.000,0.000,0
1507101512.641,845.520,802.750,850.455,853.745,0.000,0.000,0
1507101512.641,845.520,804.395,848.810,857.035,0.000,0.000,0
1507101512.641,840.585,801.105,850.455,850.455,0.000,0.000,0
1507101512.641,847.165,801.105,852.100,858.680,0.000,0.000,0
1507101512.641,847.165,801.105,855.390,861.970,0.000,0.000,0
1507101512.641,840.585,802.750,853.745,845.520,0.000,0.000,0
1507101512.641,835.650,807.685,850.455,843.875,0.000,0.000,0
1507101512.641,835.650,807.685,850.455,843.875,0.000,0.000,0
1507101512.641,840.585,807.685,850.455,843.875,0.000,0.000,0
1507101512.641,842.230,802.750,848.810,848.810,0.000,0.000,0
1507101512.641,838.940,801.105,848.810,843.875,0.000,0.000,0
1507101512.641,835.650,807.685,850.455,838.940,0.000,0.000,0
1507101512.641,835.650,809.330,850.455,840.585,0.000,0.000,0
1507101512.707,843.875,804.395,852.100,843.875,0.000,0.000,0
1507101512.707,850.455,799.460,850.455,847.165,0.000,0.000,0
1507101512.707,845.520,801.105,852.100,848.810,0.000,0.000,0
1507101512.707,842.230,801.105,852.100,845.520,0.000,0.000,0
1507101512.707,842.230,806.040,852.100,843.875,0.000,0.000,0
1507101512.707,850.455,799.460,848.810,858.680,0.000,0.000,0
1507101512.707,848.810,796.170,850.455,848.810,0.000,0.000,0
1507101512.707,848.810,812.620,855.390,858.680,0.000,0.000,0
1507101512.707,845.520,814.265,853.745,858.680,0.000,0.000,0
1507101512.707,845.520,807.685,853.745,847.165,0.000,0.000,0
1507101512.707,852.100,804.395,845.520,852.100,0.000,0.000,0
1507101512.707,845.520,806.040,847.165,843.875,0.000,0.000,0
1507101512.707,848.810,802.750,847.165,848.810,0.000,0.000,0
1507101512.707,847.165,806.040,847.165,848.810,0.000,0.000,0
1507101512.707,853.745,804.395,845.520,848.810,0.000,0.000,0
1507101512.707,853.745,801.105,845.520,852.100,0.000,0.000,0
1507101512.792,847.165,810.975,852.100,845.520,0.000,0.000,0
1507101512.792,847.165,809.330,848.810,843.875,0.000,0.000,0
1507101512.792,853.745,801.105,847.165,847.165,0.000,0.000,0
1507101512.792,853.745,799.460,845.520,838.940,0.000,0.000,0
1507101512.792,845.520,802.750,845.520,848.810,0.000,0.000,0
1507101512.792,843.875,799.460,848.810,834.005,0.000,0.000,0
1507101512.792,850.455,804.395,847.165,837.295,0.000,0.000,0
1507101512.792,848.810,807.685,848.810,834.005,0.000,0.000,0
1507101512.792,853.745,809.330,848.810,835.650,0.000,0.000,0
1507101512.792,848.810,809.330,850.455,847.165,0.000,0.000,0
1507101512.792,845.520,806.040,850.455,838.940,0.000,0.000,0
1507101512.792,847.165,809.330,843.875,834.005,0.000,0.000,0
1507101512.792,850.455,802.750,843.875,838.940,0.000,0.000,0
1507101512.792,845.520,801.105,845.520,843.875,0.000,0.000,0
1507101512.792,848.810,802.750,843.875,847.165,0.000,0.000,0
1507101512.792,850.455,802.750,845.520,842.230,0.000,0.000,0
1507101512.856,853.745,801.105,843.875,847.165,0.000,0.000,0
1507101512.856,850.455,807.685,847.165,850.455,0.000,0.000,0
1507101512.856,848.810,807.685,848.810,850.455,0.000,0.000,0
1507101512.856,857.035,806.040,848.810,853.745,0.000,0.000,0
1507101512.856,857.035,807.685,847.165,853.745,0.000,0.000,0
1507101512.856,857.035,807.685,845.520,850.455,0.000,0.000,0
1507101512.856,857.035,809.330,845.520,857.035,0.000,0.000,0
1507101512.856,850.455,809.330,847.165,847.165,0.000,0.000,0
1507101512.856,852.100,812.620,847.165,837.295,0.000,0.000,0
1507101512.856,858.680,809.330,845.520,842.230,0.000,0.000,0
1507101512.856,853.745,812.620,847.165,847.165,0.000,0.000,0
1507101512.856,853.745,810.975,847.165,852.100,0.000,0.000,0
1507101512.856,848.810,807.685,843.875,847.165,0.000,0.000,0
1507101512.856,850.455,809.330,843.875,845.520,0.000,0.000,0
1507101512.856,850.455,814.265,847.165,847.165,0.000,0.000,0
1507101512.856,850.455,809.330,847.165,848.810,0.000,0.000,0
1507101512.939,853.745,799.460,848.810,852.100,0.000,0.000,0
1507101512.939,855.390,810.975,845.520,843.875,0.000,0.000,0
1507101512.939,855.390,807.685,845.520,845.520,0.000,0.000,0
1507101512.939,852.100,810.975,850.455,848.810,0.000,0.000,0
1507101512.939,850.455,807.685,850.455,852.100,0.000,0.000,0
1507101512.939,848.810,804.395,850.455,855.390,0.000,0.000,0
1507101512.939,847.165,809.330,847.165,847.165,0.000,0.000,0
1507101512.939,847.165,804.395,850.455,855.390,0.000,0.000,0
1507101512.939,847.165,815.910,853.745,852.100,0.000,0.000,0
1507101512.939,852.100,807.685,852.100,845.520,0.000,0.000,0
1507101512.939,850.455,807.685,848.810,838.940,0.000,0.000,0
1507101512.939,850.455,812.620,847.165,835.650,0.000,0.000,0
1507101512.939,855.390,799.460,848.810,847.165,0.000,0.000,0
1507101512.939,848.810,804.395,848.810,845.520,0.000,0.000,0
1507101512.939,852.100,812.620,848.810,847.165,0.000,0.000,0
1507101512.939,852.100,804.395,845.520,847.165,0.000,0.000,0
1507101513.007,845.520,807.685,848.810,840.585,0.000,0.000,0
1507101513.007,848.810,804.395,848.810,847.165,0.000,0.000,0
1507101513.007,852.100,802.750,850.455,848.810,0.000,0.000,0
1507101513.007,847.165,804.395,847.165,842.230,0.000,0.000,0
1507101513.007,845.520,807.685,847.165,837.295,0.000,0.000,0
1507101513.007,845.520,814.265,850.455,850.455,0.000,0.000,0
1507101513.007,845.520,810.975,850.455,847.165,0.000,0.000,0
1507101513.007,853.745,806.040,847.165,855.390,0.000,0.000,0
1507101513.007,852.100,799.460,848.810,850.455,0.000,0.000,0
1507101513.007,848.810,799.460,850.455,852.100,0.000,0.000,0
1507101513.007,847.165,804.395,853.745,850.455,0.000,0.000,0
1507101513.007,843.875,812.620,852.100,852.100,0.000,0.000,0
1507101513.007,845.520,812.620,850.455,848.810,0.000,0.000,0
1507101513.007,842.230,801.105,850.455,850.455,0.000,0.000,0
1507101513.007,842.230,799.460,852.100,845.520,0.000,0.000,0
1507101513.007,848.810,801.105,853.745,847.165,0.000,0.000,0
1507101513.007,852.100,806.040,848.810,843.875,0.000,0.000,0
1507101513.089,855.390,814.265,847.165,837.295,0.000,0.000,0
1507101513.089,857.035,809.330,845.520,842.230,0.000,0.000,0
1507101513.089,852.100,804.395,845.520,838.940,0.000,0.000,0
1507101513.089,855.390,806.040,845.520,838.940,0.000,0.000,0
1507101513.089,861.970,807.685,845.520,848.810,0.000,0.000,0
1507101513.089,853.745,807.685,847.165,852.100,0.000,0.000,0
1507101513.089,848.810,810.975,847.165,847.165,0.000,0.000,0
1507101513.089,847.165,801.105,847.165,847.165,0.000,0.000,0
1507101513.089,843.875,804.395,847.165,847.165,0.000,0.000,0
1507101513.089,842.230,806.040,847.165,842.230,0.000,0.000,0
1507101513.089,835.650,807.685,850.455,853.745,0.000,0.000,0
1507101513.089,835.650,806.040,848.810,847.165,0.000,0.000,0
1507101513.089,840.585,802.750,848.810,843.875,0.000,0.000,0
1507101513.089,847.165,804.395,848.810,847.165,0.000,0.000,0
1507101513.089,847.165,799.460,852.100,848.810,0.000,0.000,0
1507101513.089,843.875,804.395,852.100,847.165,0.000,0.000,0
1507101513.156,848.810,806.040,850.455,840.585,0.000,0.000,0
1507101513.156,857.035,802.750,845.520,843.875,0.000,0.000,0
1507101513.156,850.455,806.040,848.810,838.940,0.000,0.000,0
1507101513.156,855.390,801.105,852.100,852.100,0.000,0.000,0
1507101513.156,853.745,801.105,852.100,857.035,0.000,0.000,0
1507101513.156,853.745,807.685,852.100,848.810,0.000,0.000,0
1507101513.156,855.390,804.395,848.810,852.100,0.000,0.000,0
1507101513.156,848.810,802.750,850.455,852.100,0.000,0.000,0
1507101513.156,845.520,806.040,852.100,850.455,0.000,0.000,0
1507101513.156,842.230,812.620,850.455,845.520,0.000,0.000,0
1507101513.156,847.165,809.330,848.810,847.165,0.000,0.000,0
1507101513.156,843.875,809.330,848.810,850.455,0.000,0.000,0
1507101513.156,845.520,802.750,853.745,857.035,0.000,0.000,0
1507101513.156,847.165,797.815,853.745,852.100,0.000,0.000,0
1507101513.156,845.520,806.040,850.455,843.875,0.000,0.000,0
1507101513.156,843.875,804.395,852.100,842.230,0.000,0.000,0
1507101513.222,845.520,799.460,852.100,850.455,0.000,0.000,0
1507101513.222,850.455,804.395,855.390,852.100,0.000,0.000,0
1507101513.222,850.455,810.975,853.745,840.585,0.000,0.000,0
1507101513.222,857.035,809.330,850.455,835.650,0.000,0.000,0
1507101513.222,848.810,817.555,850.455,842.230,0.000,0.000,0
1507101513.222,848.810,815.910,852.100,842.230,0.000,0.000,0
1507101513.222,847.165,807.685,848.810,843.875,0.000,0.000,0
1507101513.222,847.165,806.040,848.810,835.650,0.000,0.000,0
1507101513.222,848.810,806.040,853.745,843.875,0.000,0.000,0
1507101513.222,837.295,806.040,855.390,842.230,0.000,0.000,0
1507101513.222,834.005,807.685,855.390,840.585,0.000,0.000,0
1507101513.222,835.650,806.040,852.100,843.875,0.000,0.000,0
1507101513.222,838.940,804.395,850.455,843.875,0.000,0.000,0
1507101513.222,829.070,802.750,853.745,845.520,0.000,0.000,0
1507101513.222,835.650,804.395,853.745,848.810,0.000,0.000,0
1507101513.222,838.940,812.620,850.455,838.940,0.000,0.000,0
1507101513.305,843.875,810.975,850.455,837.295,0.000,0.000,0
1507101513.305,855.390,812.620,850.455,853.745,0.000,0.000,0
1507101513.305,845.520,815.910,852.100,845.520,0.000,0.000,0
1507101513.305,850.455,806.040,853.745,848.810,0.000,0.000,0
1507101513.305,850.455,809.330,852.100,852.100,0.000,0.000,0
1507101513.305,852.100,810.975,853.745,855.390,0.000,0.000,0
1507101513.305,848.810,815.910,857.035,855.390,0.000,0.000,0
1507101513.305,850.455,815.910,852.100,858.680,0.000,0.000,0
1507101513.305,847.165,810.975,848.810,843.875,0.000,0.000,0
1507101513.305,857.035,809.330,845.520,845.520,0.000,0.000,0
1507101513.305,850.455,810.975,847.165,850.455,0.000,0.000,0
1507101513.305,848.810,817.555,850.455,847.165,0.000,0.000,0
1507101513.305,853.745,815.910,847.165,848.810,0.000,0.000,0
1507101513.305,845.520,812.620,847.165,837.295,0.000,0.000,0
1507101513.305,842.230,814.265,848.810,834.005,0.000,0.000,0
1507101513.306,837.295,814.265,850.455,835.650,0.000,0.000,0
1507101513.372,835.650,814.265,850.455,834.005,0.000,0.000,0
1507101513.372,842.230,804.395,845.520,838.940,0.000,0.000,0
1507101513.372,838.940,801.105,847.165,832.360,0.000,0.000,0
1507101513.372,845.520,807.685,850.455,847.165,0.000,0.000,0
1507101513.372,840.585,804.395,852.100,848.810,0.000,0.000,0
1507101513.372,843.875,802.750,850.455,850.455,0.000,0.000,0
1507101513.372,852.100,804.395,848.810,850.455,0.000,0.000,0
1507101513.372,847.165,812.620,848.810,850.455,0.000,0.000,0
1507101513.372,838.940,814.265,850.455,848.810,0.000,0.000,0
1507101513.372,840.585,809.330,848.810,847.165,0.000,0.000,0
1507101513.372,842.230,809.330,847.165,845.520,0.000,0.000,0
1507101513.372,847.165,806.040,848.810,848.810,0.000,0.000,0
1507101513.372,845.520,810.975,848.810,852.100,0.000,0.000,0
1507101513.372,842.230,807.685,848.810,848.810,0.000,0.000,0
1507101513.372,842.230,806.040,848.810,838.940,0.000,0.000,0
1507101513.372,852.100,806.040,845.520,842.230,0.000,0.000,0
1507101513.441,850.455,810.975,847.165,848.810,0.000,0.000,0
1507101513.441,848.810,810.975,847.165,850.455,0.000,0.000,0
1507101513.441,843.875,809.330,847.165,842.230,0.000,0.000,0
1507101513.441,847.165,809.330,847.165,840.585,0.000,0.000,0
1507101513.441,848.810,810.975,847.165,842.230,0.000,0.000,0
1507101513.441,847.165,809.330,848.810,848.810,0.000,0.000,0
1507101513.441,845.520,807.685,848.810,848.810,0.000,0.000,0
1507101513.441,845.520,809.330,847.165,843.875,0.000,0.000,0
1507101513.441,848.810,806.040,843.875,847.165,0.000,0.000,0
1507101513.441,838.940,812.620,845.520,834.005,0.000,0.000,0
1507101513.441,845.520,812.620,845.520,843.875,0.000,0.000,0
1507101513.441,838.940,804.395,847.165,837.295,0.000,0.000,0
1507101513.441,847.165,807.685,847.165,838.940,0.000,0.000,0
1507101513.441,850.455,804.395,847.165,852.100,0.000,0.000,0
1507101513.441,838.940,810.975,848.810,842.230,0.000,0.000,0
1507101513.441,848.810,815.910,848.810,852.100,0.000,0.000,0
1507101513.522,843.875,809.330,848.810,840.585,0.000,0.000,0
1507101513.522,842.230,804.395,847.165,838.940,0.000,0.000,0
1507101513.522,845.520,799.460,848.810,847.165,0.000,0.000,0
1507101513.522,840.585,804.395,847.165,834.005,0.000,0.000,0
1507101513.522,845.520,804.395,845.520,847.165,0.000,0.000,0
1507101513.522,848.810,810.975,845.520,842.230,0.000,0.000,0
1507101513.522,838.940,815.910,847.165,838.940,0.000,0.000,0
1507101513.522,842.230,809.330,850.455,848.810,0.000,0.000,0
1507101513.522,845.520,810.975,850.455,842.230,0.000,0.000,0
1507101513.522,848.810,807.685,848.810,838.940,0.000,0.000,0
1507101513.522,848.810,807.685,848.810,847.165,0.000,0.000,0
1507101513.522,845.520,809.330,845.520,848.810,0.000,0.000,0
1507101513.522,843.875,806.040,845.520,843.875,0.000,0.000,0
1507101513.522,847.165,806.040,843.875,848.810,0.000,0.000,0
1507101513.522,845.520,804.395,843.875,838.940,0.000,0.000,0
1507101513.522,837.295,814.265,848.810,834.005,0.000,0.000,0
1507101513.589,843.875,809.330,845.520,847.165,0.000,0.000,0
1507101513.589,837.295,802.750,843.875,840.585,0.000,0.000,0
1507101513.589,840.585,809.330,842.230,832.360,0.000,0.000,0
1507101513.589,847.165,806.040,843.875,843.875,0.000,0.000,0
1507101513.589,847.165,807.685,850.455,848.810,0.000,0.000,0
1507101513.589,850.455,804.395,850.455,852.100,0.000,0.000,0
1507101513.589,852.100,801.105,847.165,855.390,0.000,0.000,0
1507101513.589,852.100,810.975,843.875,852.100,0.000,0.000,0
1507101513.589,845.520,817.555,850.455,847.165,0.000,0.000,0
1507101513.589,855.390,815.910,847.165,855.390,0.000,0.000,0
1507101513.589,845.520,810.975,845.520,840.585,0.000,0.000,0
1507101513.589,852.100,807.685,845.520,843.875,0.000,0.000,0
1507101513.589,852.100,806.040,847.165,852.100,0.000,0.000,0
1507101513.589,850.455,804.395,848.810,861.970,0.000,0.000,0
1507101513.589,850.455,804.395,848.810,861.970,0.000,0.000,0
1507101513.589,845.520,809.330,845.520,850.455,0.000,0.000,0
1507101513.589,842.230,810.975,845.520,850.455,0.000,0.000,0
1507101513.673,843.875,814.265,850.455,843.875,0.000,0.000,0
1507101513.673,843.875,809.330,848.810,847.165,0.000,0.000,0
1507101513.673,847.165,810.975,847.165,843.875,0.000,0.000,0
1507101513.673,852.100,809.330,842.230,845.520,0.000,0.000,0
1507101513.673,847.165,806.040,847.165,853.745,0.000,0.000,0
1507101513.673,842.230,799.460,847.165,858.680,0.000,0.000,0
1507101513.673,842.230,799.460,847.165,845.520,0.000,0.000,0
1507101513.673,850.455,799.460,845.520,847.165,0.000,0.000,0
1507101513.673,855.390,799.460,848.810,852.100,0.000,0.000,0
1507101513.673,850.455,804.395,850.455,852.100,0.000,0.000,0
1507101513.673,850.455,804.395,847.165,850.455,0.000,0.000,0
1507101513.673,847.165,809.330,845.520,840.585,0.000,0.000,0
1507101513.673,848.810,809.330,843.875,835.650,0.000,0.000,0
1507101513.673,847.165,812.620,847.165,840.585,0.000,0.000,0
1507101513.673,845.520,812.620,848.810,847.165,0.000,0.000,0
1507101513.673,845.520,807.685,843.875,845.520,0.000,0.000,0
1507101513.737,847.165,802.750,843.875,843.875,0.000,0.000,0
1507101513.737,848.810,806.040,845.520,847.165,0.000,0.000,0
1507101513.737,845.520,814.265,847.165,845.520,0.000,0.000,0
1507101513.737,837.295,814.265,843.875,834.005,0.000,0.000,0
1507101513.737,843.875,809.330,842.230,835.650,0.000,0.000,0
1507101513.737,842.230,806.040,842.230,830.715,0.000,0.000,0
1507101513.737,837.295,802.750,845.520,837.295,0.000,0.000,0
1507101513.737,838.940,799.460,843.875,843.875,0.000,0.000,0
1507101513.737,840.585,809.330,845.520,838.940,0.000,0.000,0
1507101513.737,848.810,807.685,845.520,848.810,0.000,0.000,0
1507101513.737,845.520,810.975,848.810,842.230,0.000,0.000,0
1507101513.737,852.100,814.265,848.810,847.165,0.000,0.000,0
1507101513.737,848.810,812.620,845.520,847.165,0.000,0.000,0
1507101513.737,852.100,814.265,845.520,837.295,0.000,0.000,0
1507101513.737,855.390,815.910,843.875,843.875,0.000,0.000,0
1507101513.737,843.875,812.620,848.810,842.230,0.000,0.000,0
1507101513.822,843.875,809.330,845.520,840.585,0.000,0.000,0
1507101513.822,845.520,812.620,847.165,845.520,0.000,0.000,0
1507101513.822,848.810,809.330,847.165,837.295,0.000,0.000,0
1507101513.822,848.810,815.910,843.875,847.165,0.000,0.000,0
1507101513.822,838.940,815.910,848.810,843.875,0.000,0.000,0
1507101513.822,842.230,815.910,847.165,850.455,0.000,0.000,0
1507101513.822,840.585,817.555,845.520,840.585,0.000,0.000,0
1507101513.822,847.165,810.975,843.875,840.585,0.000,0.000,0
1507101513.822,845.520,812.620,843.875,840.585,0.000,0.000,0
1507101513.822,840.585,814.265,845.520,840.585,0.000,0.000,0
1507101513.822,843.875,807.685,842.230,837.295,0.000,0.000,0
1507101513.822,843.875,806.040,842.230,827.425,0.000,0.000,0
1507101513.822,843.875,815.910,843.875,834.005,0.000,0.000,0
1507101513.822,845.520,814.265,847.165,834.005,0.000,0.000,0
1507101513.822,848.810,817.555,847.165,843.875,0.000,0.000,0
1507101513.822,848.810,814.265,845.520,840.585,0.000,0.000,0
1507101513.888,843.875,815.910,848.810,845.520,0.000,0.000,0
1507101513.888,840.585,819.200,848.810,840.585,0.000,0.000,0
1507101513.888,838.940,819.200,847.165,840.585,0.000,0.000,0
1507101513.888,850.455,815.910,850.455,840.585,0.000,0.000,0
1507101513.888,853.745,807.685,847.165,848.810,0.000,0.000,0
1507101513.888,837.295,809.330,852.100,848.810,0.000,0.000,0
1507101513.888,843.875,810.975,852.100,852.100,0.000,0.000,0
1507101513.888,847.165,809.330,848.810,848.810,0.000,0.000,0
1507101513.888,852.100,812.620,847.165,853.745,0.000,0.000,0
1507101513.888,847.165,820.845,850.455,843.875,0.000,0.000,0
1507101513.888,843.875,819.200,850.455,837.295,0.000,0.000,0
1507101513.888,852.100,820.845,845.520,832.360,0.000,0.000,0
1507101513.888,860.325,819.200,843.875,835.650,0.000,0.000,0
1507101513.888,855.390,814.265,843.875,834.005,0.000,0.000,0
1507101513.888,847.165,817.555,848.810,835.650,0.000,0.000,0
1507101513.888,842.230,817.555,848.810,832.360,0.000,0.000,0
1507101513.954,847.165,814.265,845.520,829.070,0.000,0.000,0
1507101513.954,848.810,814.265,845.520,837.295,0.000,0.000,0
1507101513.954,838.940,820.845,848.810,838.940,0.000,0.000,0
1507101513.954,840.585,817.555,852.100,834.005,0.000,0.000,0
1507101513.954,848.810,809.330,852.100,852.100,0.000,0.000,0
1507101513.954,850.455,809.330,848.810,848.810,0.000,0.000,0
1507101513.954,852.100,807.685,850.455,857.035,0.000,0.000,0
1507101513.954,842.230,802.750,850.455,852.100,0.000,0.000,0
1507101513.954,842.230,810.975,850.455,848.810,0.000,0.000,0
1507101513.954,840.585,815.910,847.165,852.100,0.000,0.000,0
1507101513.954,837.295,815.910,843.875,835.650,0.000,0.000,0
1507101513.954,838.940,820.845,845.520,842.230,0.000,0.000,0
1507101513.954,832.360,817.555,845.520,824.135,0.000,0.000,0
1507101513.954,850.455,812.620,845.520,835.650,0.000,0.000,0
1507101513.954,848.810,812.620,843.875,834.005,0.000,0.000,0
1507101513.954,848.810,809.330,845.520,845.520,0.000,0.000,0
1507101514.037,848.810,809.330,845.520,853.745,0.000,0.000,0
1507101514.037,845.520,817.555,847.165,842.230,0.000,0.000,0
1507101514.037,853.745,820.845,843.875,842.230,0.000,0.000,0
1507101514.037,850.455,820.845,845.520,842.230,0.000,0.000,0
1507101514.037,847.165,812.620,847.165,845.520,0.000,0.000,0
1507101514.037,842.230,807.685,843.875,843.875,0.000,0.000,0
1507101514.037,840.585,809.330,845.520,837.295,0.000,0.000,0
1507101514.037,840.585,801.105,842.230,832.360,0.000,0.000,0
1507101514.037,832.360,807.685,845.520,832.360,0.000,0.000,0
1507101514.037,834.005,814.265,850.455,832.360,0.000,0.000,0
1507101514.037,845.520,804.395,848.810,843.875,0.000,0.000,0
1507101514.037,848.810,802.750,848.810,837.295,0.000,0.000,0
1507101514.037,843.875,810.975,850.455,834.005,0.000,0.000,0
1507101514.037,847.165,815.910,852.100,838.940,0.000,0.000,0
1507101514.037,843.875,819.200,848.810,838.940,0.000,0.000,0
1507101514.037,848.810,810.975,848.810,848.810,0.000,0.000,0
1507101514.105,853.745,806.040,852.100,858.680,0.000,0.000,0
1507101514.105,845.520,809.330,853.745,857.035,0.000,0.000,0
1507101514.105,840.585,807.685,857.035,848.810,0.000,0.000,0
1507101514.105,845.520,799.460,853.745,850.455,0.000,0.000,0
1507101514.105,843.875,796.170,850.455,848.810,0.000,0.000,0
1507101514.105,838.940,809.330,850.455,843.875,0.000,0.000,0
1507101514.105,843.875,819.200,850.455,847.165,0.000,0.000,0
1507101514.105,847.165,817.555,848.810,843.875,0.000,0.000,0
1507101514.105,852.100,809.330,850.455,842.230,0.000,0.000,0
1507101514.105,850.455,812.620,850.455,834.005,0.000,0.000,0
1507101514.105,845.520,814.265,848.810,837.295,0.000,0.000,0
1507101514.106,843.875,815.910,848.810,830.715,0.000,0.000,0
1507101514.106,847.165,809.330,845.520,840.585,0.000,0.000,0
1507101514.106,845.520,806.040,843.875,840.585,0.000,0.000,0
1507101514.106,838.940,804.395,845.520,837.295,0.000,0.000,0
1507101514.106,835.650,806.040,847.165,837.295,0.000,0.000,0
1507101514.171,843.875,809.330,848.810,838.940,0.000,0.000,0
1507101514.171,845.520,810.975,847.165,838.940,0.000,0.000,0
1507101514.171,845.520,815.910,850.455,835.650,0.000,0.000,0
1507101514.171,853.745,812.620,850.455,850.455,0.000,0.000,0
1507101514.171,848.810,810.975,852.100,845.520,0.000,0.000,0
1507101514.171,850.455,812.620,853.745,842.230,0.000,0.000,0
1507101514.171,858.680,815.910,847.165,850.455,0.000,0.000,0
1507101514.171,840.585,812.620,852.100,838.940,0.000,0.000,0
1507101514.171,847.165,815.910,850.455,838.940,0.000,0.000,0
1507101514.171,848.810,817.555,845.520,840.585,0.000,0.000,0
1507101514.171,855.390,802.750,845.520,842.230,0.000,0.000,0
1507101514.171,857.035,806.040,845.520,848.810,0.000,0.000,0
1507101514.171,850.455,820.845,847.165,847.165,0.000,0.000,0
1507101514.171,847.165,817.555,845.520,842.230,0.000,0.000,0
1507101514.171,848.810,822.490,845.520,840.585,0.000,0.000,0
1507101514.171,858.680,815.910,843.875,843.875,0.000,0.000,0
1507101514.171,852.100,807.685,847.165,847.165,0.000,0.000,0
1507101514.253,845.520,810.975,848.810,837.295,0.000,0.000,0
1507101514.253,847.165,809.330,845.520,838.940,0.000,0.000,0
1507101514.253,847.165,814.265,847.165,838.940,0.000,0.000,0
1507101514.253,845.520,810.975,847.165,848.810,0.000,0.000,0
1507101514.253,847.165,810.975,850.455,858.680,0.000,0.000,0
1507101514.253,847.165,814.265,850.455,847.165,0.000,0.000,0
1507101514.253,855.390,804.395,847.165,858.680,0.000,0.000,0
1507101514.253,848.810,806.040,848.810,852.100,0.000,0.000,0
1507101514.253,838.940,814.265,850.455,850.455,0.000,0.000,0
1507101514.253,843.875,809.330,847.165,855.390,0.000,0.000,0
1507101514.253,845.520,809.330,848.810,853.745,0.000,0.000,0
1507101514.253,847.165,809.330,850.455,843.875,0.000,0.000,0
1507101514.253,850.455,810.975,852.100,853.745,0.000,0.000,0
1507101514.253,850.455,810.975,852.100,853.745,0.000,0.000,0
1507101514.253,852.100,815.910,850.455,853.745,0.000,0.000,0
1507101514.253,853.745,812.620,847.165,843.875,0.000,0.000,0
1507101514.319,850.455,804.395,847.165,848.810,0.000,0.000,0
1507101514.319,842.230,807.685,852.100,842.230,0.000,0.000,0
1507101514.319,852.100,806.040,850.455,852.100,0.000,0.000,0
1507101514.319,848.810,814.265,847.165,853.745,0.000,0.000,0
1507101514.320,845.520,820.845,843.875,842.230,0.000,0.000,0
1507101514.320,843.875,817.555,845.520,850.455,0.000,0.000,0
1507101514.320,842.230,814.265,845.520,853.745,0.000,0.000,0
1507101514.320,847.165,812.620,848.810,852.100,0.000,0.000,0
1507101514.320,847.165,807.685,845.520,850.455,0.000,0.000,0
1507101514.320,845.520,802.750,848.810,850.455,0.000,0.000,0
1507101514.320,842.230,812.620,852.100,848.810,0.000,0.000,0
1507101514.320,847.165,806.040,850.455,855.390,0.000,0.000,0
1507101514.320,855.390,812.620,850.455,853.745,0.000,0.000,0
1507101514.320,855.390,817.555,848.810,852.100,0.000,0.000,0
1507101514.320,850.455,809.330,850.455,853.745,0.000,0.000,0
1507101514.320,853.745,807.685,850.455,855.390,0.000,0.000,0
1507101514.404,853.745,812.620,848.810,850.455,0.000,0.000,0
1507101514.404,857.035,812.620,848.810,848.810,0.000,0.000,0
1507101514.404,848.810,807.685,847.165,852.100,0.000,0.000,0
1507101514.404,842.230,810.975,848.810,852.100,0.000,0.000,0
1507101514.404,847.165,814.265,848.810,858.680,0.000,0.000,0
1507101514.404,848.810,810.975,843.875,855.390,0.000,0.000,0
1507101514.404,840.585,810.975,845.520,842.230,0.000,0.000,0
1507101514.404,843.875,809.330,843.875,852.100,0.000,0.000,0
1507101514.404,837.295,812.620,847.165,842.230,0.000,0.000,0
1507101514.404,852.100,810.975,843.875,847.165,0.000,0.000,0
1507101514.404,858.680,807.685,845.520,850.455,0.000,0.000,0
1507101514.404,848.810,807.685,843.875,840.585,0.000,0.000,0
1507101514.404,848.810,812.620,843.875,837.295,0.000,0.000,0
1507101514.404,855.390,814.265,842.230,835.650,0.000,0.000,0
1507101514.404,857.035,812.620,842.230,837.295,0.000,0.000,0
1507101514.404,850.455,814.265,845.520,843.875,0.000,0.000,0
1507101514.469,845.520,814.265,843.875,843.875,0.000,0.000,0
1507101514.469,848.810,812.620,845.520,850.455,0.000,0.000,0
1507101514.469,852.100,814.265,847.165,848.810,0.000,0.000,0
1507101514.469,848.810,810.975,847.165,847.165,0.000,0.000,0
1507101514.469,850.455,815.910,852.100,858.680,0.000,0.000,0
1507101514.469,838.940,814.265,855.390,845.520,0.000,0.000,0
1507101514.469,840.585,806.040,852.100,838.940,0.000,0.000,0
1507101514.469,855.390,799.460,848.810,855.390,0.000,0.000,0
1507101514.469,834.005,809.330,855.390,834.005,0.000,0.000,0
1507101514.469,842.230,810.975,852.100,842.230,0.000,0.000,0
1507101514.469,843.875,809.330,852.100,847.165,0.000,0.000,0
1507101514.469,848.810,809.330,850.455,840.585,0.000,0.000,0
1507101514.469,852.100,814.265,847.165,848.810,0.000,0.000,0
1507101514.469,842.230,817.555,850.455,842.230,0.000,0.000,0
1507101514.469,838.940,809.330,853.745,835.650,0.000,0.000,0
1507101514.469,842.230,809.330,850.455,837.295,0.000,0.000,0
1507101514.534,847.165,802.750,848.810,838.940,0.000,0.000,0
1507101514.534,840.585,807.685,852.100,838.940,0.000,0.000,0
1507101514.534,840.585,815.910,853.745,842.230,0.000,0.000,0
1507101514.534,845.520,814.265,852.100,842.230,0.000,0.000,0
1507101514.534,848.810,812.620,852.100,842.230,0.000,0.000,0
1507101514.534,848.810,809.330,848.810,847.165,0.000,0.000,0
1507101514.534,842.230,807.685,852.100,853.745,0.000,0.000,0
1507101514.534,840.585,809.330,855.390,848.810,0.000,0.000,0
1507101514.534,850.455,804.395,852.100,855.390,0.000,0.000,0
1507101514.534,845.520,809.330,853.745,845.520,0.000,0.000,0
1507101514.534,840.585,815.910,855.390,845.520,0.000,0.000,0
1507101514.534,838.940,806.040,850.455,848.810,0.000,0.000,0
1507101514.534,840.585,809.330,848.810,848.810,0.000,0.000,0
1507101514.534,840.585,812.620,848.810,848.810,0.000,0.000,0
1507101514.534,840.585,807.685,848.810,852.100,0.000,0.000,0
1507101514.534,840.585,820.845,850.455,848.810,0.000,0.000,0
1507101514.619,845.520,814.265,852.100,852.100,0.000,0.000,0
1507101514.619,847.165,814.265,848.810,845.520,0.000,0.000,0
1507101514.619,848.810,814.265,848.810,847.165,0.000,0.000,0
1507101514.619,847.165,819.200,853.745,850.455,0.000,0.000,0
1507101514.619,848.810,810.975,850.455,852.100,0.000,0.000,0
1507101514.619,842.230,810.975,847.165,843.875,0.000,0.000,0
1507101514.619,852.100,817.555,847.165,848.810,0.000,0.000,0
1507101514.619,843.875,809.330,850.455,850.455,0.000,0.000,0
1507101514.619,840.585,807.685,848.810,840.585,0.000,0.000,0
1507101514.619,845.520,810.975,850.455,852.100,0.000,0.000,0
1507101514.619,842.230,806.040,845.520,843.875,0.000,0.000,0
1507101514.619,843.875,806.040,845.520,855.390,0.000,0.000,0
1507101514.619,843.875,815.910,852.100,861.970,0.000,0.000,0
1507101514.619,845.520,812.620,850.455,858.680,0.000,0.000,0
1507101514.619,848.810,812.620,850.455,858.680,0.000,0.000,0
1507101514.619,853.745,809.330,848.810,855.390,0.000,0.000,0
1507101514.685,850.455,807.685,850.455,853.745,0.000,0.000,0
1507101514.685,843.875,809.330,847.165,855.390,0.000,0.000,0
1507101514.685,840.585,806.040,845.520,845.520,0.000,0.000,0
1507101514.685,843.875,812.620,845.520,842.230,0.000,0.000,0
1507101514.685,842.230,807.685,848.810,850.455,0.000,0.000,0
1507101514.685,835.650,807.685,852.100,848.810,0.000,0.000,0
1507101514.685,842.230,810.975,853.745,852.100,0.000,0.000,0
1507101514.685,843.875,804.395,850.455,855.390,0.000,0.000,0
1507101514.685,838.940,807.685,850.455,840.585,0.000,0.000,0
1507101514.685,837.295,810.975,850.455,840.585,0.000,0.000,0
1507101514.685,840.585,809.330,848.810,843.875,0.000,0.000,0
1507101514.685,847.165,806.040,848.810,847.165,0.000,0.000,0
1507101514.685,843.875,806.040,847.165,842.230,0.000,0.000,0
1507101514.686,838.940,810.975,850.455,840.585,0.000,0.000,0
1507101514.686,840.585,809.330,847.165,850.455,0.000,0.000,0
1507101514.686,842.230,809.330,852.100,847.165,0.000,0.000,0
1507101514.753,848.810,806.040,848.810,847.165,0.000,0.000,0
1507101514.753,845.520,807.685,852.100,852.100,0.000,0.000,0
1507101514.753,838.940,817.555,855.390,843.875,0.000,0.000,0
1507101514.753,845.520,815.910,847.165,848.810,0.000,0.000,0
1507101514.753,847.165,817.555,850.455,850.455,0.000,0.000,0
1507101514.753,850.455,807.685,845.520,852.100,0.000,0.000,0
1507101514.753,840.585,807.685,850.455,850.455,0.000,0.000,0
1507101514.753,838.940,814.265,852.100,848.810,0.000,0.000,0
1507101514.753,848.810,814.265,850.455,848.810,0.000,0.000,0
1507101514.753,843.875,817.555,848.810,829.070,0.000,0.000,0
1507101514.753,847.165,815.910,847.165,840.585,0.000,0.000,0
1507101514.753,843.875,815.910,850.455,843.875,0.000,0.000,0
1507101514.753,843.875,809.330,848.810,847.165,0.000,0.000,0
1507101514.753,848.810,807.685,848.810,838.940,0.000,0.000,0
1507101514.753,852.100,806.040,848.810,845.520,0.000,0.000,0
1507101514.753,842.230,807.685,850.455,835.650,0.000,0.000,0
1507101514.753,848.810,809.330,843.875,840.585,0.000,0.000,0
1507101514.847,852.100,807.685,845.520,837.295,0.000,0.000,0
1507101514.847,858.680,810.975,845.520,837.295,0.000,0.000,0
1507101514.847,858.680,815.910,847.165,847.165,0.000,0.000,0
1507101514.847,855.390,812.620,852.100,855.390,0.000,0.000,0
1507101514.847,853.745,814.265,850.455,853.745,0.000,0.000,0
1507101514.847,857.035,810.975,848.810,847.165,0.000,0.000,0
1507101514.847,853.745,802.750,848.810,857.035,0.000,0.000,0
1507101514.847,842.230,809.330,850.455,848.810,0.000,0.000,0
1507101514.847,850.455,809.330,850.455,861.970,0.000,0.000,0
1507101514.847,847.165,815.910,845.520,850.455,0.000,0.000,0
1507101514.847,848.810,819.200,850.455,845.520,0.000,0.000,0
1507101514.847,848.810,819.200,850.455,852.100,0.000,0.000,0
1507101514.847,843.875,812.620,850.455,852.100,0.000,0.000,0
1507101514.847,848.810,806.040,852.100,853.745,0.000,0.000,0
1507101514.847,848.810,812.620,850.455,848.810,0.000,0.000,0
1507101514.847,845.520,814.265,852.100,848.810,0.000,0.000,0
1507101514.901,840.585,812.620,852.100,852.100,0.000,0.000,0
1507101514.901,834.005,804.395,852.100,847.165,0.000,0.000,0
1507101514.901,845.520,809.330,850.455,847.165,0.000,0.000,0
1507101514.901,848.810,806.040,850.455,850.455,0.000,0.000,0
1507101514.901,847.165,814.265,853.745,852.100,0.000,0.000,0
1507101514.901,852.100,820.845,852.100,863.615,0.000,0.000,0
1507101514.901,850.455,814.265,848.810,858.680,0.000,0.000,0
1507101514.901,848.810,815.910,850.455,850.455,0.000,0.000,0
1507101514.901,847.165,822.490,852.100,852.100,0.000,0.000,0
1507101514.901,842.230,817.555,852.100,845.520,0.000,0.000,0
1507101514.901,843.875,812.620,852.100,850.455,0.000,0.000,0
1507101514.901,853.745,807.685,848.810,852.100,0.000,0.000,0
1507101514.901,847.165,802.750,847.165,850.455,0.000,0.000,0
1507101514.901,843.875,812.620,853.745,845.520,0.000,0.000,0
1507101514.901,852.100,814.265,853.745,855.390,0.000,0.000,0
1507101514.901,848.810,814.265,855.390,852.100,0.000,0.000,0
1507101514.988,853.745,810.975,852.100,855.390,0.000,0.000,0
1507101514.988,843.875,814.265,853.745,852.100,0.000,0.000,0
1507101514.988,843.875,812.620,855.390,852.100,0.000,0.000,0
1507101514.988,847.165,807.685,852.100,857.035,0.000,0.000,0
1507101514.988,850.455,810.975,852.100,863.615,0.000,0.000,0
1507101514.988,843.875,807.685,850.455,848.810,0.000,0.000,0
1507101514.988,843.875,807.685,852.100,853.745,0.000,0.000,0
1507101514.988,848.810,815.910,852.100,845.520,0.000,0.000,0
1507101514.988,852.100,809.330,853.745,842.230,0.000,0.000,0
1507101514.988,853.745,814.265,850.455,843.875,0.000,0.000,0
1507101514.988,845.520,812.620,850.455,838.940,0.000,0.000,0
1507101514.988,847.165,810.975,852.100,843.875,0.000,0.000,0
1507101514.988,842.230,812.620,845.520,830.715,0.000,0.000,0
1507101514.988,843.875,809.330,842.230,837.295,0.000,0.000,0
1507101514.988,840.585,809.330,850.455,837.295,0.000,0.000,0
1507101514.988,842.230,810.975,848.810,848.810,0.000,0.000,0
1507101515.053,842.230,814.265,850.455,855.390,0.000,0.000,0
1507101515.053,845.520,817.555,850.455,853.745,0.000,0.000,0
1507101515.053,843.875,815.910,845.520,843.875,0.000,0.000,0
1507101515.053,835.650,815.910,848.810,835.650,0.000,0.000,0
1507101515.053,840.585,806.040,847.165,842.230,0.000,0.000,0
1507101515.053,840.585,802.750,845.520,832.360,0.000,0.000,0
1507101515.053,847.165,799.460,843.875,838.940,0.000,0.000,0
1507101515.053,847.165,797.815,845.520,853.745,0.000,0.000,0
1507101515.053,837.295,820.845,845.520,834.005,0.000,0.000,0
1507101515.053,843.875,824.135,845.520,845.520,0.000,0.000,0
1507101515.053,847.165,815.910,847.165,838.940,0.000,0.000,0
1507101515.053,847.165,814.265,843.875,837.295,0.000,0.000,0
1507101515.053,838.940,812.620,847.165,840.585,0.000,0.000,0
1507101515.053,837.295,810.975,850.455,843.875,0.000,0.000,0
1507101515.053,840.585,812.620,848.810,838.940,0.000,0.000,0
1507101515.053,845.520,815.910,847.165,845.520,0.000,0.000,0
1507101515.135,840.585,810.975,848.810,843.875,0.000,0.000,0
1507101515.135,838.940,812.620,847.165,837.295,0.000,0.000,0
1507101515.135,842.230,822.490,847.165,835.650,0.000,0.000,0
1507101515.135,843.875,812.620,843.875,834.005,0.000,0.000,0
1507101515.135,840.585,817.555,843.875,835.650,0.000,0.000,0
1507101515.135,840.585,812.620,847.165,847.165,0.000,0.000,0
1507101515.135,838.940,807.685,848.810,838.940,0.000,0.000,0
1507101515.135,838.940,804.395,850.455,829.070,0.000,0.000,0
1507101515.135,850.455,815.910,847.165,834.005,0.000,0.000,0
1507101515.135,843.875,812.620,848.810,837.295,0.000,0.000,0
1507101515.135,845.520,815.910,850.455,845.520,0.000,0.000,0
1507101515.135,845.520,812.620,850.455,848.810,0.000,0.000,0
1507101515.135,843.875,801.105,850.455,840.585,0.000,0.000,0
1507101515.135,843.875,809.330,852.100,838.940,0.000,0.000,0
1507101515.135,843.875,810.975,853.745,847.165,0.000,0.000,0
1507101515.135,847.165,819.200,850.455,847.165,0.000,0.000,0
1507101515.201,845.520,825.780,850.455,838.940,0.000,0.000,0
1507101515.201,847.165,815.910,850.455,853.745,0.000,0.000,0
1507101515.201,842.230,817.555,852.100,848.810,0.000,0.000,0
1507101515.201,843.875,819.200,850.455,850.455,0.000,0.000,0
1507101515.201,843.875,814.265,848.810,845.520,0.000,0.000,0
1507101515.201,845.520,806.040,843.875,832.360,0.000,0.000,0
1507101515.201,840.585,807.685,845.520,830.715,0.000,0.000,0
1507101515.201,842.230,802.750,845.520,842.230,0.000,0.000,0
1507101515.201,840.585,806.040,845.520,838.940,0.000,0.000,0
1507101515.201,843.875,814.265,847.165,835.650,0.000,0.000,0
1507101515.201,845.520,817.555,847.165,848.810,0.000,0.000,0
1507101515.201,840.585,824.135,848.810,834.005,0.000,0.000,0
1507101515.201,847.165,817.555,847.165,842.230,0.000,0.000,0
1507101515.201,843.875,814.265,843.875,837.295,0.000,0.000,0
1507101515.201,850.455,814.265,847.165,843.875,0.000,0.000,0
1507101515.201,848.810,815.910,850.455,853.745,0.000,0.000,0
1507101515.268,845.520,815.910,850.455,845.520,0.000,0.000,0
1507101515.268,850.455,809.330,847.165,850.455,0.000,0.000,0
1507101515.268,845.520,806.040,847.165,837.295,0.000,0.000,0
1507101515.268,848.810,819.200,848.810,838.940,0.000,0.000,0
1507101515.268,842.230,815.910,852.100,843.875,0.000,0.000,0
1507101515.268,845.520,810.975,850.455,843.875,0.000,0.000,0
1507101515.268,852.100,814.265,847.165,852.100,0.000,0.000,0
1507101515.268,843.875,810.975,845.520,847.165,0.000,0.000,0
1507101515.268,842.230,820.845,847.165,845.520,0.000,0.000,0
1507101515.268,838.940,824.135,850.455,838.940,0.000,0.000,0
1507101515.268,845.520,817.555,848.810,843.875,0.000,0.000,0
1507101515.268,850.455,809.330,848.810,847.165,0.000,0.000,0
1507101515.268,848.810,814.265,847.165,848.810,0.000,0.000,0
1507101515.268,838.940,812.620,850.455,842.230,0.000,0.000,0
1507101515.268,842.230,807.685,852.100,847.165,0.000,0.000,0
1507101515.268,847.165,812.620,850.455,855.390,0.000,0.000,0
1507101515.350,845.520,814.265,850.455,861.970,0.000,0.000,0
1507101515.350,838.940,806.040,852.100,855.390,0.000,0.000,0
1507101515.350,843.875,812.620,853.745,848.810,0.000,0.000,0
1507101515.350,848.810,815.910,852.100,843.875,0.000,0.000,0
1507101515.350,853.745,819.200,850.455,847.165,0.000,0.000,0
1507101515.350,850.455,814.265,852.100,855.390,0.000,0.000,0
1507101515.350,842.230,804.395,852.100,850.455,0.000,0.000,0
1507101515.350,847.165,807.685,853.745,842.230,0.000,0.000,0
1507101515.350,848.810,815.910,850.455,842.230,0.000,0.000,0
1507101515.350,848.810,819.200,848.810,848.810,0.000,0.000,0
1507101515.350,838.940,812.620,852.100,852.100,0.000,0.000,0
1507101515.350,838.940,804.395,850.455,853.745,0.000,0.000,0
1507101515.350,840.585,810.975,848.810,845.520,0.000,0.000,0
1507101515.350,845.520,807.685,848.810,845.520,0.000,0.000,0
1507101515.350,843.875,814.265,852.100,848.810,0.000,0.000,0
1507101515.350,842.230,806.040,850.455,845.520,0.000,0.000,0
1507101515.350,843.875,807.685,850.455,852.100,0.000,0.000,0
1507101515.417,852.100,820.845,848.810,853.745,0.000,0.000,0
1507101515.417,848.810,817.555,850.455,853.745,0.000,0.000,0
1507101515.417,842.230,820.845,852.100,850.455,0.000,0.000,0
1507101515.417,838.940,812.620,847.165,843.875,0.000,0.000,0
1507101515.417,843.875,807.685,847.165,843.875,0.000,0.000,0
1507101515.417,848.810,806.040,848.810,843.875,0.000,0.000,0
1507101515.417,850.455,807.685,853.745,863.615,0.000,0.000,0
1507101515.417,842.230,812.620,853.745,848.810,0.000,0.000,0
1507101515.417,843.875,814.265,848.810,838.940,0.000,0.000,0
1507101515.417,850.455,812.620,850.455,848.810,0.000,0.000,0
1507101515.417,848.810,815.910,853.745,845.520,0.000,0.000,0
1507101515.417,850.455,809.330,855.390,855.390,0.000,0.000,0
1507101515.417,845.520,807.685,853.745,848.810,0.000,0.000,0
1507101515.417,847.165,814.265,848.810,840.585,0.000,0.000,0
1507101515.417,850.455,812.620,848.810,842.230,0.000,0.000,0
1507101515.417,848.810,810.975,850.455,848.810,0.000,0.000,0
1507101515.499,850.455,810.975,850.455,850.455,0.000,0.000,0
1507101515.499,847.165,810.975,850.455,837.295,0.000,0.000,0
1507101515.499,848.810,815.910,845.520,837.295,0.000,0.000,0
1507101515.499,840.585,815.910,848.810,847.165,0.000,0.000,0
1507101515.499,843.875,809.330,850.455,847.165,0.000,0.000,0
1507101515.499,845.520,810.975,848.810,852.100,0.000,0.000,0
1507101515.499,847.165,810.975,848.810,843.875,0.000,0.000,0
1507101515.499,852.100,815.910,848.810,850.455,0.000,0.000,0
1507101515.499,843.875,815.910,848.810,848.810,0.000,0.000,0
1507101515.499,850.455,812.620,850.455,850.455,0.000,0.000,0
1507101515.499,853.745,815.910,845.520,848.810,0.000,0.000,0
1507101515.499,847.165,814.265,845.520,843.875,0.000,0.000,0
1507101515.499,842.230,820.845,848.810,845.520,0.000,0.000,0
1507101515.499,840.585,815.910,847.165,848.810,0.000,0.000,0
1507101515.499,838.940,814.265,850.455,838.940,0.000,0.000,0
1507101515.499,848.810,812.620,845.520,842.230,0.000,0.000,0
1507101515.566,842.230,807.685,843.875,847.165,0.000,0.000,0
1507101515.566,842.230,807.685,847.165,842.230,0.000,0.000,0
1507101515.566,853.745,806.040,848.810,852.100,0.000,0.000,0
1507101515.566,852.100,809.330,848.810,845.520,0.000,0.000,0
1507101515.566,847.165,822.490,848.810,842.230,0.000,0.000,0
1507101515.566,840.585,827.425,845.520,842.230,0.000,0.000,0
1507101515.566,838.940,824.135,843.875,830.715,0.000,0.000,0
1507101515.566,845.520,817.555,845.520,840.585,0.000,0.000,0
1507101515.566,843.875,810.975,847.165,838.940,0.000,0.000,0
1507101515.566,842.230,815.910,848.810,843.875,0.000,0.000,0
1507101515.566,840.585,817.555,848.810,845.520,0.000,0.000,0
1507101515.566,848.810,807.685,847.165,840.585,0.000,0.000,0
1507101515.566,852.100,799.460,845.520,843.875,0.000,0.000,0
1507101515.566,847.165,806.040,847.165,845.520,0.000,0.000,0
1507101515.566,838.940,812.620,845.520,843.875,0.000,0.000,0
1507101515.566,842.230,819.200,848.810,840.585,0.000,0.000,0
1507101515.632,852.100,819.200,847.165,843.875,0.000,0.000,0
1507101515.632,845.520,824.135,845.520,838.940,0.000,0.000,0
1507101515.632,843.875,822.490,852.100,847.165,0.000,0.000,0
1507101515.632,845.520,814.265,850.455,845.520,0.000,0.000,0
1507101515.632,838.940,814.265,848.810,838.940,0.000,0.000,0
1507101515.632,838.940,809.330,845.520,838.940,0.000,0.000,0
1507101515.632,837.295,807.685,845.520,852.100,0.000,0.000,0
1507101515.632,834.005,815.910,848.810,842.230,0.000,0.000,0
1507101515.632,838.940,817.555,848.810,842.230,0.000,0.000,0
1507101515.632,848.810,815.910,845.520,842.230,0.000,0.000,0
1507101515.632,843.875,817.555,847.165,840.585,0.000,0.000,0
1507101515.632,835.650,814.265,848.810,835.650,0.000,0.000,0
1507101515.632,842.230,812.620,850.455,842.230,0.000,0.000,0
1507101515.632,837.295,819.200,850.455,829.070,0.000,0.000,0
1507101515.632,847.165,824.135,847.165,843.875,0.000,0.000,0
1507101515.632,847.165,822.490,848.810,855.390,0.000,0.000,0
1507101515.716,845.520,817.555,853.745,847.165,0.000,0.000,0
1507101515.716,842.230,819.200,852.100,837.295,0.000,0.000,0
1507101515.716,847.165,820.845,848.810,837.295,0.000,0.000,0
1507101515.716,843.875,817.555,850.455,835.650,0.000,0.000,0
1507101515.716,847.165,812.620,850.455,847.165,0.000,0.000,0
1507101515.716,848.810,815.910,852.100,842.230,0.000,0.000,0
1507101515.716,848.810,815.910,853.745,842.230,0.000,0.000,0
1507101515.716,848.810,810.975,852.100,842.230,0.000,0.000,0
1507101515.716,840.585,817.555,853.745,842.230,0.000,0.000,0
1507101515.716,840.585,822.490,857.035,853.745,0.000,0.000,0
1507101515.716,827.425,824.135,855.390,832.360,0.000,0.000,0
1507101515.716,822.490,825.780,855.390,815.910,0.000,0.000,0
1507101515.716,822.490,815.910,857.035,832.360,0.000,0.000,0
1507101515.716,809.330,814.265,861.970,820.845,0.000,0.000,0
1507101515.716,806.040,819.200,860.325,819.200,0.000,0.000,0
1507101515.716,806.040,819.200,858.680,814.265,0.000,0.000,0
1507101515.783,796.170,819.200,863.615,801.105,0.000,0.000,0
1507101515.783,787.946,824.135,863.615,792.881,0.000,0.000,0
1507101515.783,789.591,830.715,871.840,794.526,0.000,0.000,0
1507101515.783,773.141,834.005,868.550,774.786,0.000,0.000,0
1507101515.783,768.206,827.425,863.615,759.981,0.000,0.000,0
1507101515.783,753.401,827.425,866.905,756.691,0.000,0.000,0
1507101515.783,746.821,829.070,870.195,746.821,0.000,0.000,0
1507101515.783,736.951,819.200,870.195,738.596,0.000,0.000,0
1507101515.783,725.436,817.555,871.840,715.566,0.000,0.000,0
1507101515.783,720.501,815.910,871.840,715.566,0.000,0.000,0
1507101515.783,704.052,822.490,875.130,707.342,0.000,0.000,0
1507101515.783,707.342,817.555,876.775,699.117,0.000,0.000,0
1507101515.783,707.342,801.105,873.485,699.117,0.000,0.000,0
1507101515.783,708.987,804.395,876.775,697.472,0.000,0.000,0
1507101515.783,702.407,820.845,875.130,695.827,0.000,0.000,0
1507101515.783,707.342,820.845,873.485,697.472,0.000,0.000,0
1507101515.849,717.211,824.135,870.195,712.276,0.000,0.000,0
1507101515.849,725.436,815.910,868.550,717.211,0.000,0.000,0
1507101515.849,728.726,817.555,865.260,723.791,0.000,0.000,0
1507101515.849,738.596,825.780,860.325,740.241,0.000,0.000,0
1507101515.849,748.466,819.200,857.035,741.886,0.000,0.000,0
1507101515.849,763.271,806.040,853.745,753.401,0.000,0.000,0
1507101515.849,774.786,807.685,850.455,768.206,0.000,0.000,0
1507101515.849,774.786,814.265,855.390,769.851,0.000,0.000,0
1507101515.849,792.881,812.620,852.100,783.011,0.000,0.000,0
1507101515.849,809.330,809.330,847.165,796.170,0.000,0.000,0
1507101515.849,819.200,809.330,845.520,814.265,0.000,0.000,0
1507101515.849,824.135,812.620,842.230,817.555,0.000,0.000,0
1507101515.849,827.425,815.910,842.230,824.135,0.000,0.000,0
1507101515.849,840.585,812.620,842.230,829.070,0.000,0.000,0
1507101515.849,852.100,814.265,837.295,838.940,0.000,0.000,0
1507101515.849,857.035,806.040,835.650,848.810,0.000,0.000,0
1507101515.932,860.325,814.265,837.295,858.680,0.000,0.000,0
1507101515.932,868.550,810.975,835.650,865.260,0.000,0.000,0
1507101515.932,881.709,804.395,835.650,876.775,0.000,0.000,0
1507101515.932,889.934,806.040,834.005,883.354,0.000,0.000,0
1507101515.932,896.514,807.685,834.005,896.514,0.000,0.000,0
1507101515.932,894.869,815.910,834.005,893.224,0.000,0.000,0
1507101515.932,898.159,812.620,834.005,893.224,0.000,0.000,0
1507101515.932,908.029,801.105,830.715,904.739,0.000,0.000,0
1507101515.932,906.384,802.750,834.005,904.739,0.000,0.000,0
1507101515.932,909.674,817.555,834.005,908.029,0.000,0.000,0
1507101515.932,912.964,815.910,832.360,912.964,0.000,0.000,0
1507101515.932,924.479,810.975,832.360,922.834,0.000,0.000,0
1507101515.932,926.124,799.460,829.070,922.834,0.000,0.000,0
1507101515.932,924.479,801.105,835.650,931.059,0.000,0.000,0
1507101515.932,931.059,814.265,837.295,932.704,0.000,0.000,0
1507101515.932,926.124,810.975,837.295,922.834,0.000,0.000,0
1507101515.932,932.704,814.265,832.360,926.124,0.000,0.000,0
1507101515.999,919.544,810.975,830.715,916.254,0.000,0.000,0
1507101515.999,921.189,814.265,834.005,921.189,0.000,0.000,0
1507101515.999,922.834,819.200,834.005,912.964,0.000,0.000,0
1507101515.999,927.769,807.685,835.650,927.769,0.000,0.000,0
1507101515.999,924.479,797.815,835.650,922.834,0.000,0.000,0
1507101515.999,921.189,812.620,835.650,924.479,0.000,0.000,0
1507101515.999,919.544,814.265,835.650,924.479,0.000,0.000,0
1507101515.999,921.189,815.910,837.295,916.254,0.000,0.000,0
1507101515.999,927.769,810.975,835.650,924.479,0.000,0.000,0
1507101515.999,911.319,804.395,838.940,908.029,0.000,0.000,0
1507101515.999,921.189,809.330,838.940,922.834,0.000,0.000,0
1507101515.999,921.189,814.265,838.940,922.834,0.000,0.000,0
1507101515.999,914.609,814.265,837.295,916.254,0.000,0.000,0
1507101515.999,911.319,814.265,840.585,912.964,0.000,0.000,0
1507101515.999,909.674,810.975,840.585,908.029,0.000,0.000,0
1507101515.999,904.739,810.975,842.230,903.094,0.000,0.000,0
1507101516.082,908.029,810.975,843.875,906.384,0.000,0.000,0
1507101516.082,906.384,807.685,842.230,908.029,0.000,0.000,0
1507101516.082,904.739,817.555,842.230,906.384,0.000,0.000,0
1507101516.082,901.449,815.910,842.230,894.869,0.000,0.000,0
1507101516.082,898.159,804.395,838.940,893.224,0.000,0.000,0
1507101516.082,898.159,799.460,837.295,894.869,0.000,0.000,0
1507101516.082,881.709,815.910,840.585,883.354,0.000,0.000,0
1507101516.082,883.354,819.200,842.230,893.224,0.000,0.000,0
1507101516.082,880.064,825.780,843.875,880.064,0.000,0.000,0
1507101516.082,880.064,814.265,843.875,888.289,0.000,0.000,0
1507101516.082,876.775,804.395,842.230,888.289,0.000,0.000,0
1507101516.082,868.550,806.040,848.810,889.934,0.000,0.000,0
1507101516.082,863.615,807.685,847.165,881.709,0.000,0.000,0
1507101516.082,866.905,812.620,843.875,878.419,0.000,0.000,0
1507101516.082,875.130,804.395,842.230,876.775,0.000,0.000,0
1507101516.082,871.840,815.910,842.230,870.195,0.000,0.000,0
1507101516.148,870.195,814.265,843.875,873.485,0.000,0.000,0
1507101516.148,868.550,812.620,840.585,866.905,0.000,0.000,0
1507101516.148,865.260,817.555,838.940,866.905,0.000,0.000,0
1507101516.148,868.550,809.330,840.585,870.195,0.000,0.000,0
1507101516.148,863.615,806.040,843.875,861.970,0.000,0.000,0
1507101516.148,861.970,807.685,847.165,860.325,0.000,0.000,0
1507101516.148,865.260,804.395,840.585,863.615,0.000,0.000,0
1507101516.148,865.260,802.750,840.585,866.905,0.000,0.000,0
1507101516.148,852.100,810.975,850.455,866.905,0.000,0.000,0
1507101516.148,855.390,817.555,850.455,861.970,0.000,0.000,0
1507101516.148,858.680,817.555,850.455,861.970,0.000,0.000,0
1507101516.148,858.680,815.910,847.165,863.615,0.000,0.000,0
1507101516.148,853.745,809.330,843.875,861.970,0.000,0.000,0
1507101516.148,845.520,810.975,843.875,870.195,0.000,0.000,0
1507101516.148,853.745,810.975,842.230,870.195,0.000,0.000,0
1507101516.148,857.035,809.330,842.230,861.970,0.000,0.000,0
1507101516.214,855.390,809.330,838.940,853.745,0.000,0.000,0
1507101516.214,848.810,814.265,845.520,842.230,0.000,0.000,0
1507101516.214,852.100,824.135,848.810,848.810,0.000,0.000,0
1507101516.214,855.390,820.845,845.520,850.455,0.000,0.000,0
1507101516.214,860.325,809.330,845.520,852.100,0.000,0.000,0
1507101516.214,855.390,806.040,847.165,855.390,0.000,0.000,0
1507101516.214,845.520,814.265,847.165,848.810,0.000,0.000,0
1507101516.214,847.165,817.555,845.520,845.520,0.000,0.000,0
1507101516.214,850.455,819.200,847.165,852.100,0.000,0.000,0
1507101516.214,838.940,814.265,847.165,840.585,0.000,0.000,0
1507101516.214,843.875,810.975,847.165,850.455,0.000,0.000,0
1507101516.214,843.875,807.685,847.165,848.810,0.000,0.000,0
1507101516.214,847.165,810.975,845.520,843.875,0.000,0.000,0
1507101516.214,847.165,815.910,845.520,847.165,0.000,0.000,0
1507101516.214,845.520,812.620,847.165,852.100,0.000,0.000,0
1507101516.214,842.230,814.265,847.165,848.810,0.000,0.000,0
1507101516.298,843.875,809.330,843.875,850.455,0.000,0.000,0
1507101516.298,845.520,804.395,842.230,847.165,0.000,0.000,0
1507101516.298,842.230,809.330,845.520,850.455,0.000,0.000,0
1507101516.298,842.230,812.620,848.810,853.745,0.000,0.000,0
1507101516.298,845.520,815.910,847.165,855.390,0.000,0.000,0
1507101516.298,848.810,810.975,848.810,847.165,0.000,0.000,0
1507101516.298,860.325,819.200,845.520,860.325,0.000,0.000,0
1507101516.298,847.165,819.200,848.810,852.100,0.000,0.000,0
1507101516.298,845.520,814.265,848.810,847.165,0.000,0.000,0
1507101516.298,853.745,815.910,850.455,857.035,0.000,0.000,0
1507101516.298,848.810,819.200,845.520,845.520,0.000,0.000,0
1507101516.298,853.745,812.620,847.165,863.615,0.000,0.000,0
1507101516.298,848.810,819.200,850.455,861.970,0.000,0.000,0
1507101516.298,850.455,815.910,848.810,857.035,0.000,0.000,0
1507101516.298,850.455,807.685,850.455,855.390,0.000,0.000,0
1507101516.298,845.520,815.910,847.165,853.745,0.000,0.000,0
1507101516.366,840.585,820.845,848.810,843.875,0.000,0.000,0
1507101516.366,840.585,825.780,843.875,847.165,0.000,0.000,0
1507101516.366,848.810,822.490,845.520,845.520,0.000,0.000,0
1507101516.366,855.390,822.490,847.165,845.520,0.000,0.000,0
1507101516.366,848.810,815.910,845.520,852.100,0.000,0.000,0
1507101516.366,843.875,814.265,848.810,840.585,0.000,0.000,0
1507101516.366,857.035,814.265,848.810,853.745,0.000,0.000,0
1507101516.366,857.035,812.620,845.520,853.745,0.000,0.000,0
1507101516.366,852.100,819.200,850.455,842.230,0.000,0.000,0
1507101516.366,843.875,817.555,852.100,838.940,0.000,0.000,0
1507101516.366,852.100,817.555,848.810,845.520,0.000,0.000,0
1507101516.366,855.390,812.620,847.165,848.810,0.000,0.000,0
1507101516.366,857.035,815.910,847.165,848.810,0.000,0.000,0
1507101516.366,853.745,822.490,850.455,850.455,0.000,0.000,0
1507101516.366,843.875,820.845,848.810,840.585,0.000,0.000,0
1507101516.366,852.100,824.135,850.455,845.520,0.000,0.000,0
1507101516.447,855.390,815.910,847.165,845.520,0.000,0.000,0
1507101516.447,842.230,817.555,848.810,837.295,0.000,0.000,0
1507101516.447,847.165,815.910,850.455,843.875,0.000,0.000,0
1507101516.447,848.810,812.620,848.810,843.875,0.000,0.000,0
1507101516.447,858.680,817.555,847.165,850.455,0.000,0.000,0
1507101516.447,858.680,815.910,847.165,852.100,0.000,0.000,0
1507101516.447,843.875,815.910,848.810,845.520,0.000,0.000,0
1507101516.447,843.875,817.555,848.810,843.875,0.000,0.000,0
1507101516.447,842.230,814.265,845.520,838.940,0.000,0.000,0
1507101516.447,838.940,815.910,843.875,830.715,0.000,0.000,0
1507101516.447,843.875,822.490,843.875,845.520,0.000,0.000,0
1507101516.447,840.585,825.780,845.520,835.650,0.000,0.000,0
1507101516.447,850.455,822.490,845.520,847.165,0.000,0.000,0
1507101516.447,852.100,815.910,843.875,847.165,0.000,0.000,0
1507101516.447,848.810,810.975,845.520,840.585,0.000,0.000,0
1507101516.447,845.520,814.265,847.165,850.455,0.000,0.000,0
1507101516.514,837.295,812.620,847.165,838.940,0.000,0.000,0
1507101516.514,850.455,809.330,847.165,847.165,0.000,0.000,0
1507101516.514,853.745,817.555,845.520,850.455,0.000,0.000,0
1507101516.514,843.875,819.200,845.520,838.940,0.000,0.000,0
1507101516.514,843.875,825.780,848.810,837.295,0.000,0.000,0
1507101516.514,842.230,820.845,845.520,837.295,0.000,0.000,0
1507101516.514,840.585,814.265,843.875,834.005,0.000,0.000,0
1507101516.514,847.165,810.975,845.520,850.455,0.000,0.000,0
1507101516.514,840.585,814.265,847.165,843.875,0.000,0.000,0
1507101516.514,845.520,822.490,845.520,847.165,0.000,0.000,0
1507101516.514,845.520,817.555,845.520,852.100,0.000,0.000,0
1507101516.514,842.230,817.555,847.165,835.650,0.000,0.000,0
1507101516.514,840.585,814.265,847.165,842.230,0.000,0.000,0
1507101516.514,835.650,815.910,848.810,838.940,0.000,0.000,0
1507101516.514,843.875,814.265,847.165,837.295,0.000,0.000,0
1507101516.514,845.520,819.200,847.165,834.005,0.000,0.000,0
1507101516.514,842.230,819.200,845.520,832.360,0.000,0.000,0
1507101516.598,843.875,819.200,848.810,829.070,0.000,0.000,0
1507101516.598,853.745,819.200,845.520,842.230,0.000,0.000,0
1507101516.598,855.390,820.845,845.520,842.230,0.000,0.000,0
1507101516.598,852.100,819.200,845.520,837.295,0.000,0.000,0
1507101516.598,848.810,819.200,847.165,842.230,0.000,0.000,0
1507101516.598,852.100,819.200,847.165,852.100,0.000,0.000,0
1507101516.598,852.100,814.265,847.165,848.810,0.000,0.000,0
1507101516.598,855.390,810.975,850.455,857.035,0.000,0.000,0
1507101516.598,845.520,814.265,850.455,857.035,0.000,0.000,0
1507101516.598,834.005,824.135,850.455,845.520,0.000,0.000,0
1507101516.598,842.230,822.490,850.455,852.100,0.000,0.000,0
1507101516.598,845.520,820.845,847.165,840.585,0.000,0.000,0
1507101516.598,842.230,819.200,848.810,837.295,0.000,0.000,0
1507101516.598,842.230,817.555,848.810,843.875,0.000,0.000,0
1507101516.598,843.875,819.200,847.165,850.455,0.000,0.000,0
1507101516.598,845.520,814.265,848.810,850.455,0.000,0.000,0
1507101516.663,847.165,809.330,847.165,840.585,0.000,0.000,0
1507101516.663,843.875,819.200,848.810,843.875,0.000,0.000,0
1507101516.663,834.005,817.555,848.810,834.005,0.000,0.000,0
1507101516.663,843.875,822.490,843.875,840.585,0.000,0.000,0
1507101516.663,848.810,812.620,848.810,853.745,0.000,0.000,0
1507101516.663,842.230,815.910,850.455,850.455,0.000,0.000,0
1507101516.663,835.650,819.200,848.810,847.165,0.000,0.000,0
1507101516.663,838.940,819.200,850.455,843.875,0.000,0.000,0
1507101516.663,842.230,814.265,848.810,848.810,0.000,0.000,0
1507101516.663,838.940,815.910,848.810,838.940,0.000,0.000,0
1507101516.663,845.520,812.620,853.745,850.455,0.000,0.000,0
1507101516.663,847.165,809.330,852.100,850.455,0.000,0.000,0
1507101516.663,852.100,820.845,848.810,848.810,0.000,0.000,0
1507101516.663,850.455,819.200,845.520,845.520,0.000,0.000,0
1507101516.663,847.165,825.780,847.165,848.810,0.000,0.000,0
1507101516.663,840.585,827.425,848.810,838.940,0.000,0.000,0
1507101516.729,852.100,812.620,848.810,842.230,0.000,0.000,0
1507101516.729,848.810,807.685,848.810,848.810,0.000,0.000,0
1507101516.729,845.520,824.135,847.165,838.940,0.000,0.000,0
1507101516.729,842.230,824.135,848.810,838.940,0.000,0.000,0
1507101516.729,842.230,820.845,850.455,845.520,0.000,0.000,0
1507101516.729,848.810,819.200,850.455,843.875,0.000,0.000,0
1507101516.729,848.810,810.975,850.455,852.100,0.000,0.000,0
1507101516.729,838.940,815.910,852.100,845.520,0.000,0.000,0
1507101516.729,837.295,814.265,850.455,837.295,0.000,0.000,0
1507101516.729,843.875,814.265,848.810,847.165,0.000,0.000,0
1507101516.729,843.875,812.620,847.165,837.295,0.000,0.000,0
1507101516.729,840.585,819.200,850.455,842.230,0.000,0.000,0
1507101516.729,845.520,822.490,852.100,848.810,0.000,0.000,0
1507101516.729,838.940,820.845,850.455,842.230,0.000,0.000,0
1507101516.729,848.810,817.555,847.165,840.585,0.000,0.000,0
1507101516.729,850.455,810.975,845.520,837.295,0.000,0.000,0
1507101516.813,842.230,817.555,850.455,832.360,0.000,0.000,0
1507101516.813,848.810,819.200,852.100,850.455,0.000,0.000,0
1507101516.813,852.100,812.620,850.455,858.680,0.000,0.000,0
1507101516.813,852.100,814.265,850.455,853.745,0.000,0.000,0
1507101516.813,852.100,817.555,850.455,852.100,0.000,0.000,0
1507101516.813,845.520,820.845,850.455,845.520,0.000,0.000,0
1507101516.813,843.875,820.845,848.810,845.520,0.000,0.000,0
1507101516.813,855.390,819.200,848.810,853.745,0.000,0.000,0
1507101516.813,847.165,812.620,848.810,843.875,0.000,0.000,0
1507101516.813,847.165,819.200,853.745,847.165,0.000,0.000,0
1507101516.813,855.390,820.845,852.100,855.390,0.000,0.000,0
1507101516.813,852.100,817.555,850.455,853.745,0.000,0.000,0
1507101516.813,853.745,815.910,852.100,848.810,0.000,0.000,0
1507101516.813,853.745,817.555,850.455,848.810,0.000,0.000,0
1507101516.813,848.810,814.265,850.455,848.810,0.000,0.000,0
1507101516.813,845.520,815.910,848.810,845.520,0.000,0.000,0
1507101516.881,845.520,820.845,843.875,840.585,0.000,0.000,0
1507101516.881,843.875,820.845,845.520,842.230,0.000,0.000,0
1507101516.881,838.940,822.490,850.455,837.295,0.000,0.000,0
1507101516.881,848.810,814.265,847.165,843.875,0.000,0.000,0
1507101516.881,847.165,807.685,847.165,847.165,0.000,0.000,0
1507101516.881,843.875,815.910,848.810,843.875,0.000,0.000,0
1507101516.881,845.520,819.200,850.455,857.035,0.000,0.000,0
1507101516.881,848.810,815.910,852.100,860.325,0.000,0.000,0
1507101516.881,847.165,814.265,848.810,850.455,0.000,0.000,0
1507101516.881,847.165,817.555,847.165,843.875,0.000,0.000,0
1507101516.881,845.520,817.555,848.810,842.230,0.000,0.000,0
1507101516.881,842.230,814.265,848.810,838.940,0.000,0.000,0
1507101516.881,848.810,822.490,848.810,848.810,0.000,0.000,0
1507101516.881,845.520,819.200,847.165,847.165,0.000,0.000,0
1507101516.881,840.585,819.200,850.455,845.520,0.000,0.000,0
1507101516.881,838.940,825.780,853.745,848.810,0.000,0.000,0
1507101516.946,842.230,817.555,852.100,852.100,0.000,0.000,0
1507101516.946,850.455,815.910,850.455,852.100,0.000,0.000,0
1507101516.946,847.165,819.200,847.165,848.810,0.000,0.000,0
1507101516.946,842.230,825.780,850.455,852.100,0.000,0.000,0
1507101516.946,838.940,815.910,855.390,850.455,0.000,0.000,0
1507101516.946,847.165,809.330,852.100,857.035,0.000,0.000,0
1507101516.946,848.810,815.910,848.810,858.680,0.000,0.000,0
1507101516.946,843.875,820.845,847.165,847.165,0.000,0.000,0
1507101516.946,838.940,820.845,847.165,848.810,0.000,0.000,0
1507101516.946,834.005,820.845,847.165,834.005,0.000,0.000,0
1507101516.946,837.295,815.910,845.520,830.715,0.000,0.000,0
1507101516.946,834.005,810.975,843.875,832.360,0.000,0.000,0
1507101516.946,830.715,824.135,847.165,835.650,0.000,0.000,0
1507101516.946,832.360,822.490,848.810,838.940,0.000,0.000,0
1507101516.946,837.295,810.975,847.165,837.295,0.000,0.000,0
1507101516.946,845.520,812.620,842.230,845.520,0.000,0.000,0
1507101517.029,842.230,804.395,845.520,838.940,0.000,0.000,0
1507101517.029,847.165,812.620,850.455,847.165,0.000,0.000,0
1507101517.029,850.455,810.975,848.810,848.810,0.000,0.000,0
1507101517.029,852.100,815.910,847.165,845.520,0.000,0.000,0
1507101517.029,848.810,822.490,845.520,847.165,0.000,0.000,0
1507101517.029,835.650,822.490,847.165,843.875,0.000,0.000,0
1507101517.029,838.940,825.780,848.810,838.940,0.000,0.000,0
1507101517.029,840.585,819.200,845.520,838.940,0.000,0.000,0
1507101517.029,838.940,812.620,845.520,840.585,0.000,0.000,0
1507101517.029,838.940,806.040,847.165,843.875,0.000,0.000,0
1507101517.029,834.005,815.910,847.165,840.585,0.000,0.000,0
1507101517.029,840.585,822.490,847.165,847.165,0.000,0.000,0
1507101517.029,845.520,827.425,845.520,843.875,0.000,0.000,0
1507101517.029,848.810,824.135,845.520,853.745,0.000,0.000,0
1507101517.029,848.810,820.845,848.810,858.680,0.000,0.000,0
1507101517.029,848.810,814.265,848.810,852.100,0.000,0.000,0
1507101517.096,852.100,817.555,847.165,847.165,0.000,0.000,0
1507101517.096,853.745,815.910,847.165,847.165,0.000,0.000,0
1507101517.096,850.455,815.910,850.455,842.230,0.000,0.000,0
1507101517.096,852.100,817.555,847.165,860.325,0.000,0.000,0
1507101517.096,848.810,817.555,847.165,848.810,0.000,0.000,0
1507101517.096,848.810,819.200,847.165,845.520,0.000,0.000,0
1507101517.096,848.810,814.265,847.165,848.810,0.000,0.000,0
1507101517.096,842.230,812.620,848.810,848.810,0.000,0.000,0
1507101517.096,843.875,817.555,847.165,843.875,0.000,0.000,0
1507101517.096,848.810,814.265,845.520,842.230,0.000,0.000,0
1507101517.096,845.520,807.685,845.520,842.230,0.000,0.000,0
1507101517.096,848.810,810.975,847.165,857.035,0.000,0.000,0
1507101517.096,843.875,819.200,845.520,852.100,0.000,0.000,0
1507101517.096,842.230,829.070,845.520,843.875,0.000,0.000,0
1507101517.096,842.230,825.780,843.875,832.360,0.000,0.000,0
1507101517.096,842.230,819.200,843.875,832.360,0.000,0.000,0
1507101517.096,837.295,814.265,845.520,838.940,0.000,0.000,0
1507101517.179,842.230,820.845,845.520,840.585,0.000,0.000,0
1507101517.179,848.810,824.135,843.875,837.295,0.000,0.000,0
1507101517.179,853.745,817.555,847.165,842.230,0.000,0.000,0
1507101517.179,847.165,819.200,847.165,843.875,0.000,0.000,0
1507101517.179,852.100,817.555,847.165,850.455,0.000,0.000,0
1507101517.179,845.520,810.975,847.165,852.100,0.000,0.000,0
1507101517.179,845.520,815.910,847.165,842.230,0.000,0.000,0
1507101517.179,845.520,815.910,848.810,855.390,0.000,0.000,0
1507101517.179,845.520,820.845,850.455,848.810,0.000,0.000,0
1507101517.179,848.810,819.200,848.810,853.745,0.000,0.000,0
1507101517.179,847.165,809.330,847.165,848.810,0.000,0.000,0
1507101517.179,843.875,817.555,847.165,847.165,0.000,0.000,0
1507101517.179,842.230,810.975,847.165,847.165,0.000,0.000,0
1507101517.179,843.875,815.910,847.165,848.810,0.000,0.000,0
1507101517.179,847.165,822.490,845.520,848.810,0.000,0.000,0
1507101517.179,843.875,817.555,845.520,845.520,0.000,0.000,0
1507101517.246,840.585,827.425,848.810,847.165,0.000,0.000,0
1507101517.246,845.520,817.555,850.455,853.745,0.000,0.000,0
1507101517.246,848.810,814.265,848.810,853.745,0.000,0.000,0
1507101517.246,845.520,810.975,847.165,842.230,0.000,0.000,0
1507101517.246,842.230,809.330,847.165,847.165,0.000,0.000,0
1507101517.246,838.940,814.265,852.100,847.165,0.000,0.000,0
1507101517.246,845.520,814.265,848.810,848.810,0.000,0.000,0
1507101517.246,850.455,812.620,847.165,857.035,0.000,0.000,0
1507101517.246,842.230,817.555,845.520,842.230,0.000,0.000,0
1507101517.246,840.585,817.555,847.165,845.520,0.000,0.000,0
1507101517.246,837.295,819.200,848.810,834.005,0.000,0.000,0
1507101517.246,843.875,815.910,843.875,838.940,0.000,0.000,0
1507101517.246,847.165,819.200,847.165,842.230,0.000,0.000,0
1507101517.246,842.230,820.845,848.810,840.585,0.000,0.000,0
1507101517.246,848.810,814.265,850.455,855.390,0.000,0.000,0
1507101517.246,845.520,814.265,850.455,847.165,0.000,0.000,0
1507101517.311,850.455,809.330,845.520,850.455,0.000,0.000,0
1507101517.311,843.875,809.330,847.165,842.230,0.000,0.000,0
1507101517.311,835.650,825.780,847.165,838.940,0.000,0.000,0
1507101517.311,843.875,824.135,847.165,845.520,0.000,0.000,0
1507101517.311,845.520,817.555,848.810,840.585,0.000,0.000,0
1507101517.311,853.745,815.910,850.455,852.100,0.000,0.000,0
1507101517.311,842.230,815.910,852.100,850.455,0.000,0.000,0
1507101517.311,843.875,819.200,848.810,850.455,0.000,0.000,0
1507101517.311,847.165,812.620,847.165,852.100,0.000,0.000,0
1507101517.311,843.875,814.265,843.875,838.940,0.000,0.000,0
1507101517.311,847.165,820.845,848.810,842.230,0.000,0.000,0
1507101517.311,842.230,822.490,852.100,850.455,0.000,0.000,0
1507101517.311,845.520,825.780,852.100,845.520,0.000,0.000,0
1507101517.311,840.585,819.200,852.100,840.585,0.000,0.000,0
1507101517.311,847.165,810.975,848.810,852.100,0.000,0.000,0
1507101517.311,840.585,820.845,852.100,847.165,0.000,0.000,0
1507101517.406,838.940,819.200,850.455,848.810,0.000,0.000,0
1507101517.406,845.520,820.845,848.810,843.875,0.000,0.000,0
1507101517.406,847.165,819.200,847.165,837.295,0.000,0.000,0
1507101517.406,842.230,815.910,847.165,840.585,0.000,0.000,0
1507101517.406,843.875,819.200,852.100,848.810,0.000,0.000,0
1507101517.406,845.520,819.200,852.100,838.940,0.000,0.000,0
1507101517.406,847.165,817.555,848.810,847.165,0.000,0.000,0
1507101517.406,843.875,814.265,848.810,848.810,0.000,0.000,0
1507101517.406,838.940,814.265,848.810,843.875,0.000,0.000,0
1507101517.406,837.295,807.685,847.165,843.875,0.000,0.000,0
1507101517.406,840.585,817.555,847.165,835.650,0.000,0.000,0
1507101517.406,848.810,820.845,847.165,838.940,0.000,0.000,0
1507101517.406,847.165,824.135,848.810,842.230,0.000,0.000,0
1507101517.406,847.165,824.135,847.165,843.875,0.000,0.000,0
1507101517.406,847.165,822.490,845.520,842.230,0.000,0.000,0
1507101517.406,850.455,819.200,845.520,837.295,0.000,0.000,0
1507101517.463,853.745,819.200,845.520,848.810,0.000,0.000,0
1507101517.463,842.230,819.200,848.810,845.520,0.000,0.000,0
1507101517.463,843.875,815.910,850.455,847.165,0.000,0.000,0
1507101517.463,842.230,822.490,850.455,850.455,0.000,0.000,0
1507101517.463,843.875,819.200,845.520,847.165,0.000,0.000,0
1507101517.463,837.295,820.845,852.100,842.230,0.000,0.000,0
1507101517.463,847.165,817.555,850.455,850.455,0.000,0.000,0
1507101517.463,842.230,807.685,848.810,853.745,0.000,0.000,0
1507101517.463,838.940,809.330,848.810,848.810,0.000,0.000,0
1507101517.463,842.230,814.265,848.810,858.680,0.000,0.000,0
1507101517.463,838.940,814.265,850.455,855.390,0.000,0.000,0
1507101517.463,840.585,817.555,852.100,843.875,0.000,0.000,0
1507101517.463,840.585,822.490,852.100,840.585,0.000,0.000,0
1507101517.463,847.165,809.330,850.455,845.520,0.000,0.000,0
1507101517.463,842.230,815.910,850.455,848.810,0.000,0.000,0
1507101517.463,842.230,822.490,848.810,857.035,0.000,0.000,0
1507101517.546,843.875,817.555,848.810,850.455,0.000,0.000,0
1507101517.546,845.520,822.490,847.165,843.875,0.000,0.000,0
1507101517.546,845.520,824.135,850.455,840.585,0.000,0.000,0
1507101517.546,845.520,820.845,848.810,842.230,0.000,0.000,0
1507101517.546,842.230,825.780,847.165,842.230,0.000,0.000,0
1507101517.546,850.455,824.135,848.810,855.390,0.000,0.000,0
1507101517.546,842.230,817.555,850.455,850.455,0.000,0.000,0
1507101517.546,840.585,812.620,853.745,850.455,0.000,0.000,0
1507101517.546,840.585,819.200,852.100,850.455,0.000,0.000,0
1507101517.546,838.940,810.975,850.455,840.585,0.000,0.000,0
1507101517.546,848.810,814.265,847.165,848.810,0.000,0.000,0
1507101517.546,840.585,824.135,847.165,847.165,0.000,0.000,0
1507101517.546,840.585,827.425,843.875,843.875,0.000,0.000,0
1507101517.546,845.520,830.715,847.165,840.585,0.000,0.000,0
1507101517.546,850.455,825.780,848.810,848.810,0.000,0.000,0
1507101517.546,840.585,819.200,845.520,847.165,0.000,0.000,0
1507101517.611,835.650,820.845,848.810,847.165,0.000,0.000,0
1507101517.611,837.295,819.200,847.165,847.165,0.000,0.000,0
1507101517.611,853.745,810.975,850.455,848.810,0.000,0.000,0
1507101517.611,855.390,807.685,850.455,845.520,0.000,0.000,0
1507101517.611,853.745,810.975,850.455,857.035,0.000,0.000,0
1507101517.611,845.520,812.620,848.810,847.165,0.000,0.000,0
1507101517.611,848.810,815.910,847.165,847.165,0.000,0.000,0
1507101517.611,852.100,820.845,845.520,850.455,0.000,0.000,0
1507101517.611,843.875,822.490,845.520,847.165,0.000,0.000,0
1507101517.611,840.585,825.780,848.810,835.650,0.000,0.000,0
1507101517.611,845.520,817.555,848.810,842.230,0.000,0.000,0
1507101517.611,853.745,810.975,850.455,845.520,0.000,0.000,0
1507101517.611,860.325,812.620,847.165,853.745,0.000,0.000,0
1507101517.611,850.455,815.910,845.520,852.100,0.000,0.000,0
1507101517.611,850.455,819.200,850.455,848.810,0.000,0.000,0
1507101517.611,850.455,815.910,848.810,840.585,0.000,0.000,0
1507101517.681,853.745,817.555,847.165,852.100,0.000,0.000,0
1507101517.681,850.455,819.200,848.810,858.680,0.000,0.000,0
1507101517.681,842.230,819.200,847.165,850.455,0.000,0.000,0
1507101517.681,847.165,825.780,848.810,845.520,0.000,0.000,0
1507101517.681,858.680,824.135,848.810,850.455,0.000,0.000,0
1507101517.681,853.745,824.135,847.165,845.520,0.000,0.000,0
1507101517.681,850.455,827.425,847.165,855.390,0.000,0.000,0
1507101517.681,842.230,820.845,848.810,847.165,0.000,0.000,0
1507101517.681,843.875,819.200,845.520,840.585,0.000,0.000,0
1507101517.681,847.165,815.910,847.165,843.875,0.000,0.000,0
1507101517.681,842.230,812.620,847.165,837.295,0.000,0.000,0
1507101517.681,845.520,810.975,847.165,843.875,0.000,0.000,0
1507101517.681,843.875,824.135,847.165,834.005,0.000,0.000,0
1507101517.681,843.875,822.490,845.520,834.005,0.000,0.000,0
1507101517.681,842.230,824.135,845.520,838.940,0.000,0.000,0
