timestamps,TP9,FP1,FP2,TP10,n/a,n/a,Marker0
1507101309.761,837.295,819.200,850.455,850.455,0.000,0.000,1
1507101309.761,834.005,817.555,855.390,848.810,0.000,0.000,0
1507101309.761,837.295,817.555,855.390,842.230,0.000,0.000,0
1507101309.761,842.230,815.910,852.100,848.810,0.000,0.000,0
1507101309.761,845.520,817.555,850.455,857.035,0.000,0.000,0
1507101309.761,842.230,822.490,852.100,852.100,0.000,0.000,0
1507101309.761,842.230,820.845,850.455,857.035,0.000,0.000,0
1507101309.761,835.650,822.490,850.455,842.230,0.000,0.000,0
1507101309.761,840.585,815.910,848.810,848.810,0.000,0.000,0
1507101309.761,838.940,819.200,848.810,847.165,0.000,0.000,0
1507101309.761,838.940,822.490,850.455,835.650,0.000,0.000,0
1507101309.761,838.940,820.845,847.165,835.650,0.000,0.000,0
1507101309.761,835.650,820.845,845.520,827.425,0.000,0.000,0
1507101309.761,840.585,817.555,845.520,848.810,0.000,0.000,0
1507101309.761,834.005,817.555,848.810,852.100,0.000,0.000,0
1507101309.761,842.230,819.200,848.810,847.165,0.000,0.000,0
1507101309.846,840.585,819.200,850.455,850.455,0.000,0.000,0
1507101309.846,837.295,817.555,847.165,832.360,0.000,0.000,0
1507101309.846,842.230,819.200,848.810,842.230,0.000,0.000,0
1507101309.846,835.650,820.845,848.810,837.295,0.000,0.000,0
1507101309.846,837.295,815.910,845.520,835.650,0.000,0.000,0
1507101309.846,837.295,810.975,847.165,837.295,0.000,0.000,0
1507101309.846,832.360,814.265,845.520,830.715,0.000,0.000,0
1507101309.846,840.585,819.200,845.520,850.455,0.000,0.000,0
1507101309.846,834.005,819.200,845.520,838.940,0.000,0.000,0
1507101309.846,843.875,820.845,845.520,838.940,0.000,0.000,0
1507101309.846,840.585,817.555,845.520,847.165,0.000,0.000,0
1507101309.846,837.295,817.555,848.810,837.295,0.000,0.000,0
1507101309.846,840.585,819.200,847.165,842.230,0.000,0.000,0
1507101309.846,842.230,817.555,848.810,852.100,0.000,0.000,0
1507101309.846,843.875,814.265,845.520,850.455,0.000,0.000,0
1507101309.846,830.715,817.555,850.455,848.810,0.000,0.000,0
1507101309.911,830.715,822.490,847.165,855.390,0.000,0.000,0
1507101309.911,825.780,815.910,847.165,835.650,0.000,0.000,0
1507101309.911,829.070,815.910,845.520,837.295,0.000,0.000,0
1507101309.911,840.585,814.265,843.875,838.940,0.000,0.000,0
1507101309.911,837.295,820.845,847.165,848.810,0.000,0.000,0
1507101309.911,832.360,822.490,845.520,845.520,0.000,0.000,0
1507101309.911,832.360,820.845,847.165,840.585,0.000,0.000,0
1507101309.911,835.650,814.265,848.810,852.100,0.000,0.000,0
1507101309.911,820.845,815.910,850.455,842.230,0.000,0.000,0
1507101309.911,822.490,822.490,848.810,838.940,0.000,0.000,0
1507101309.911,829.070,820.845,848.810,840.585,0.000,0.000,0
1507101309.911,835.650,817.555,845.520,835.650,0.000,0.000,0
1507101309.911,837.295,824.135,843.875,843.875,0.000,0.000,0
1507101309.911,829.070,817.555,845.520,848.810,0.000,0.000,0
1507101309.911,832.360,817.555,845.520,845.520,0.000,0.000,0
1507101309.911,837.295,819.200,847.165,848.810,0.000,0.000,0
1507101309.981,838.940,814.265,843.875,847.165,0.000,0.000,0
1507101309.981,834.005,822.490,845.520,842.230,0.000,0.000,0
1507101309.981,835.650,822.490,847.165,835.650,0.000,0.000,0
1507101309.981,838.940,817.555,847.165,840.585,0.000,0.000,0
1507101309.981,843.875,819.200,847.165,838.940,0.000,0.000,0
1507101309.981,842.230,817.555,847.165,842.230,0.000,0.000,0
1507101309.981,835.650,819.200,847.165,847.165,0.000,0.000,0
1507101309.981,834.005,822.490,848.810,835.650,0.000,0.000,0
1507101309.981,842.230,820.845,845.520,845.520,0.000,0.000,0
1507101309.981,832.360,822.490,848.810,847.165,0.000,0.000,0
1507101309.981,829.070,824.135,853.745,855.390,0.000,0.000,0
1507101309.981,825.780,819.200,852.100,863.615,0.000,0.000,0
1507101309.981,827.425,819.200,852.100,873.485,0.000,0.000,0
1507101309.981,834.005,810.975,845.520,866.905,0.000,0.000,0
1507101309.981,824.135,817.555,847.165,830.715,0.000,0.000,0
1507101309.981,829.070,815.910,848.810,834.005,0.000,0.000,0
1507101310.063,834.005,814.265,847.165,822.490,0.000,0.000,0
1507101310.063,835.650,815.910,847.165,822.490,0.000,0.000,0
1507101310.063,843.875,812.620,842.230,840.585,0.000,0.000,0
1507101310.063,837.295,817.555,845.520,825.780,0.000,0.000,0
1507101310.063,853.745,819.200,845.520,832.360,0.000,0.000,0
1507101310.063,857.035,820.845,842.230,850.455,0.000,0.000,0
1507101310.063,848.810,822.490,840.585,830.715,0.000,0.000,0
1507101310.063,850.455,824.135,843.875,845.520,0.000,0.000,0
1507101310.063,838.940,825.780,845.520,837.295,0.000,0.000,0
1507101310.063,842.230,822.490,845.520,842.230,0.000,0.000,0
1507101310.063,843.875,815.910,842.230,847.165,0.000,0.000,0
1507101310.063,838.940,819.200,843.875,848.810,0.000,0.000,0
1507101310.063,838.940,824.135,847.165,850.455,0.000,0.000,0
1507101310.063,843.875,819.200,845.520,853.745,0.000,0.000,0
1507101310.063,845.520,819.200,845.520,853.745,0.000,0.000,0
1507101310.063,842.230,815.910,842.230,865.260,0.000,0.000,0
1507101310.127,835.650,817.555,847.165,870.195,0.000,0.000,0
1507101310.127,837.295,820.845,845.520,866.905,0.000,0.000,0
1507101310.127,837.295,817.555,847.165,860.325,0.000,0.000,0
1507101310.127,840.585,817.555,843.875,840.585,0.000,0.000,0
1507101310.127,835.650,824.135,845.520,834.005,0.000,0.000,0
1507101310.127,843.875,824.135,850.455,838.940,0.000,0.000,0
1507101310.127,843.875,822.490,845.520,834.005,0.000,0.000,0
1507101310.127,845.520,817.555,845.520,840.585,0.000,0.000,0
1507101310.127,845.520,815.910,848.810,835.650,0.000,0.000,0
1507101310.127,837.295,822.490,852.100,837.295,0.000,0.000,0
1507101310.127,838.940,819.200,848.810,840.585,0.000,0.000,0
1507101310.127,848.810,815.910,847.165,845.520,0.000,0.000,0
1507101310.127,848.810,819.200,843.875,855.390,0.000,0.000,0
1507101310.127,838.940,822.490,850.455,861.970,0.000,0.000,0
1507101310.127,835.650,824.135,850.455,853.745,0.000,0.000,0
1507101310.127,850.455,822.490,848.810,858.680,0.000,0.000,0
1507101310.195,855.390,815.910,847.165,837.295,0.000,0.000,0
1507101310.195,855.390,819.200,847.165,822.490,0.000,0.000,0
1507101310.195,852.100,822.490,848.810,822.490,0.000,0.000,0
1507101310.195,850.455,820.845,843.875,819.200,0.000,0.000,0
1507101310.195,835.650,817.555,847.165,829.070,0.000,0.000,0
1507101310.195,840.585,814.265,845.520,834.005,0.000,0.000,0
1507101310.195,829.070,817.555,850.455,834.005,0.000,0.000,0
1507101310.195,830.715,820.845,852.100,840.585,0.000,0.000,0
1507101310.195,843.875,817.555,848.810,837.295,0.000,0.000,0
1507101310.195,842.230,812.620,847.165,847.165,0.000,0.000,0
1507101310.195,842.230,815.910,848.810,852.100,0.000,0.000,0
1507101310.195,834.005,820.845,845.520,838.940,0.000,0.000,0
1507101310.195,837.295,819.200,842.230,837.295,0.000,0.000,0
1507101310.195,837.295,814.265,847.165,835.650,0.000,0.000,0
1507101310.195,837.295,814.265,843.875,837.295,0.000,0.000,0
1507101310.195,834.005,822.490,843.875,842.230,0.000,0.000,0
1507101310.195,835.650,822.490,843.875,843.875,0.000,0.000,0
1507101310.279,830.715,820.845,840.585,825.780,0.000,0.000,0
1507101310.279,843.875,822.490,835.650,840.585,0.000,0.000,0
1507101310.279,857.035,822.490,837.295,835.650,0.000,0.000,0
1507101310.279,842.230,824.135,842.230,847.165,0.000,0.000,0
1507101310.279,840.585,820.845,842.230,848.810,0.000,0.000,0
1507101310.279,855.390,819.200,838.940,832.360,0.000,0.000,0
1507101310.279,835.650,819.200,845.520,837.295,0.000,0.000,0
1507101310.279,834.005,820.845,847.165,848.810,0.000,0.000,0
1507101310.279,847.165,815.910,847.165,857.035,0.000,0.000,0
1507101310.279,840.585,815.910,843.875,858.680,0.000,0.000,0
1507101310.279,850.455,820.845,832.360,830.715,0.000,0.000,0
1507101310.279,838.940,827.425,835.650,822.490,0.000,0.000,0
1507101310.279,838.940,824.135,842.230,830.715,0.000,0.000,0
1507101310.279,837.295,822.490,840.585,838.940,0.000,0.000,0
1507101310.279,848.810,815.910,842.230,871.840,0.000,0.000,0
1507101310.279,830.715,812.620,848.810,868.550,0.000,0.000,0
1507101310.343,830.715,812.620,847.165,860.325,0.000,0.000,0
1507101310.343,838.940,819.200,845.520,860.325,0.000,0.000,0
1507101310.343,857.035,819.200,840.585,843.875,0.000,0.000,0
1507101310.343,848.810,815.910,842.230,860.325,0.000,0.000,0
1507101310.343,825.780,825.780,850.455,845.520,0.000,0.000,0
1507101310.343,843.875,825.780,845.520,850.455,0.000,0.000,0
1507101310.343,845.520,824.135,842.230,855.390,0.000,0.000,0
1507101310.343,840.585,825.780,842.230,843.875,0.000,0.000,0
1507101310.343,842.230,822.490,847.165,863.615,0.000,0.000,0
1507101310.343,827.425,824.135,848.810,850.455,0.000,0.000,0
1507101310.343,840.585,824.135,845.520,852.100,0.000,0.000,0
1507101310.343,852.100,820.845,845.520,860.325,0.000,0.000,0
1507101310.343,847.165,819.200,847.165,857.035,0.000,0.000,0
1507101310.343,845.520,829.070,847.165,855.390,0.000,0.000,0
1507101310.343,850.455,829.070,843.875,852.100,0.000,0.000,0
1507101310.343,848.810,824.135,842.230,853.745,0.000,0.000,0
1507101310.428,842.230,820.845,842.230,845.520,0.000,0.000,0
1507101310.428,837.295,822.490,842.230,848.810,0.000,0.000,0
1507101310.428,837.295,824.135,842.230,850.455,0.000,0.000,0
1507101310.428,842.230,824.135,840.585,850.455,0.000,0.000,0
1507101310.428,845.520,817.555,835.650,842.230,0.000,0.000,0
1507101310.428,840.585,820.845,838.940,835.650,0.000,0.000,0
1507101310.428,838.940,822.490,843.875,838.940,0.000,0.000,0
1507101310.428,840.585,819.200,840.585,845.520,0.000,0.000,0
1507101310.428,838.940,819.200,842.230,829.070,0.000,0.000,0
1507101310.428,840.585,820.845,838.940,842.230,0.000,0.000,0
1507101310.428,837.295,819.200,843.875,845.520,0.000,0.000,0
1507101310.428,842.230,824.135,847.165,843.875,0.000,0.000,0
1507101310.428,840.585,820.845,845.520,845.520,0.000,0.000,0
1507101310.428,843.875,812.620,845.520,838.940,0.000,0.000,0
1507101310.428,840.585,815.910,843.875,834.005,0.000,0.000,0
1507101310.428,835.650,815.910,848.810,835.650,0.000,0.000,0
1507101310.493,837.295,812.620,847.165,834.005,0.000,0.000,0
1507101310.493,838.940,815.910,843.875,838.940,0.000,0.000,0
1507101310.493,834.005,820.845,842.230,838.940,0.000,0.000,0
1507101310.493,834.005,822.490,847.165,835.650,0.000,0.000,0
1507101310.493,842.230,820.845,847.165,842.230,0.000,0.000,0
1507101310.493,837.295,819.200,848.810,835.650,0.000,0.000,0
1507101310.493,843.875,815.910,845.520,847.165,0.000,0.000,0
1507101310.493,837.295,814.265,848.810,848.810,0.000,0.000,0
1507101310.493,827.425,820.845,848.810,822.490,0.000,0.000,0
1507101310.493,842.230,819.200,848.810,845.520,0.000,0.000,0
1507101310.493,845.520,817.555,845.520,847.165,0.000,0.000,0
1507101310.493,840.585,819.200,845.520,842.230,0.000,0.000,0
1507101310.493,820.845,820.845,852.100,838.940,0.000,0.000,0
1507101310.493,829.070,820.845,848.810,842.230,0.000,0.000,0
1507101310.493,832.360,815.910,848.810,850.455,0.000,0.000,0
1507101310.493,837.295,815.910,847.165,840.585,0.000,0.000,0
1507101310.576,840.585,814.265,847.165,847.165,0.000,0.000,0
1507101310.576,834.005,814.265,848.810,829.070,0.000,0.000,0
1507101310.576,834.005,817.555,847.165,830.715,0.000,0.000,0
1507101310.576,845.520,820.845,843.875,835.650,0.000,0.000,0
1507101310.576,838.940,814.265,845.520,830.715,0.000,0.000,0
1507101310.576,835.650,815.910,848.810,845.520,0.000,0.000,0
1507101310.576,835.650,817.555,848.810,837.295,0.000,0.000,0
1507101310.576,835.650,815.910,845.520,840.585,0.000,0.000,0
1507101310.576,838.940,819.200,845.520,838.940,0.000,0.000,0
1507101310.576,834.005,822.490,852.100,829.070,0.000,0.000,0
1507101310.576,845.520,819.200,848.810,840.585,0.000,0.000,0
1507101310.576,842.230,819.200,848.810,837.295,0.000,0.000,0
1507101310.576,842.230,819.200,848.810,834.005,0.000,0.000,0
1507101310.576,837.295,820.845,848.810,843.875,0.000,0.000,0
1507101310.576,834.005,820.845,853.745,852.100,0.000,0.000,0
1507101310.576,835.650,822.490,852.100,843.875,0.000,0.000,0
1507101310.642,830.715,820.845,847.165,834.005,0.000,0.000,0
1507101310.642,834.005,817.555,847.165,838.940,0.000,0.000,0
1507101310.642,830.715,822.490,852.100,830.715,0.000,0.000,0
1507101310.642,832.360,822.490,850.455,842.230,0.000,0.000,0
1507101310.642,835.650,820.845,848.810,847.165,0.000,0.000,0
1507101310.642,829.070,817.555,848.810,829.070,0.000,0.000,0
1507101310.642,830.715,819.200,850.455,834.005,0.000,0.000,0
1507101310.642,829.070,819.200,852.100,838.940,0.000,0.000,0
1507101310.642,832.360,820.845,848.810,838.940,0.000,0.000,0
1507101310.642,829.070,820.845,848.810,834.005,0.000,0.000,0
1507101310.642,829.070,819.200,847.165,837.295,0.000,0.000,0
1507101310.642,825.780,820.845,852.100,827.425,0.000,0.000,0
1507101310.642,835.650,820.845,852.100,842.230,0.000,0.000,0
1507101310.642,834.005,819.200,848.810,842.230,0.000,0.000,0
1507101310.642,837.295,820.845,848.810,840.585,0.000,0.000,0
1507101310.642,832.360,825.780,852.100,838.940,0.000,0.000,0
1507101310.708,830.715,819.200,852.100,842.230,0.000,0.000,0
1507101310.708,835.650,814.265,852.100,840.585,0.000,0.000,0
1507101310.708,835.650,819.200,850.455,837.295,0.000,0.000,0
1507101310.708,838.940,819.200,850.455,840.585,0.000,0.000,0
1507101310.708,837.295,824.135,857.035,835.650,0.000,0.000,0
1507101310.708,842.230,824.135,855.390,847.165,0.000,0.000,0
1507101310.708,842.230,819.200,855.390,847.165,0.000,0.000,0
1507101310.708,835.650,820.845,853.745,837.295,0.000,0.000,0
1507101310.708,832.360,825.780,853.745,838.940,0.000,0.000,0
1507101310.708,838.940,822.490,853.745,837.295,0.000,0.000,0
1507101310.708,843.875,819.200,852.100,848.810,0.000,0.000,0
1507101310.708,845.520,819.200,845.520,845.520,0.000,0.000,0
1507101310.708,834.005,822.490,848.810,840.585,0.000,0.000,0
1507101310.708,834.005,820.845,848.810,842.230,0.000,0.000,0
1507101310.708,834.005,817.555,848.810,830.715,0.000,0.000,0
1507101310.708,840.585,820.845,847.165,838.940,0.000,0.000,0
1507101310.792,837.295,819.200,847.165,845.520,0.000,0.000,0
1507101310.792,827.425,820.845,853.745,845.520,0.000,0.000,0
1507101310.792,837.295,819.200,853.745,847.165,0.000,0.000,0
1507101310.792,838.940,812.620,852.100,847.165,0.000,0.000,0
1507101310.792,840.585,815.910,847.165,842.230,0.000,0.000,0
1507101310.792,835.650,817.555,852.100,853.745,0.000,0.000,0
1507101310.792,832.360,820.845,855.390,845.520,0.000,0.000,0
1507101310.792,837.295,817.555,850.455,852.100,0.000,0.000,0
1507101310.792,837.295,815.910,850.455,838.940,0.000,0.000,0
1507101310.792,837.295,817.555,850.455,845.520,0.000,0.000,0
1507101310.792,835.650,815.910,855.390,852.100,0.000,0.000,0
1507101310.792,838.940,817.555,855.390,845.520,0.000,0.000,0
1507101310.792,842.230,817.555,853.745,842.230,0.000,0.000,0
1507101310.792,840.585,817.555,850.455,840.585,0.000,0.000,0
1507101310.792,837.295,820.845,855.390,847.165,0.000,0.000,0
1507101310.792,838.940,817.555,853.745,845.520,0.000,0.000,0
1507101310.792,837.295,815.910,852.100,843.875,0.000,0.000,0
1507101310.858,842.230,814.265,850.455,843.875,0.000,0.000,0
1507101310.858,835.650,819.200,853.745,835.650,0.000,0.000,0
1507101310.858,845.520,817.555,853.745,847.165,0.000,0.000,0
1507101310.858,855.390,819.200,852.100,852.100,0.000,0.000,0
1507101310.858,843.875,817.555,850.455,843.875,0.000,0.000,0
1507101310.858,843.875,815.910,848.810,845.520,0.000,0.000,0
1507101310.858,837.295,814.265,853.745,852.100,0.000,0.000,0
1507101310.858,829.070,812.620,853.745,842.230,0.000,0.000,0
1507101310.858,830.715,814.265,850.455,840.585,0.000,0.000,0
1507101310.858,832.360,817.555,848.810,840.585,0.000,0.000,0
1507101310.858,825.780,822.490,850.455,834.005,0.000,0.000,0
1507101310.858,832.360,817.555,848.810,843.875,0.000,0.000,0
1507101310.858,832.360,817.555,848.810,840.585,0.000,0.000,0
1507101310.858,834.005,810.975,847.165,835.650,0.000,0.000,0
1507101310.858,837.295,814.265,848.810,843.875,0.000,0.000,0
1507101310.858,843.875,814.265,852.100,853.745,0.000,0.000,0
1507101310.955,842.230,815.910,852.100,852.100,0.000,0.000,0
1507101310.955,840.585,817.555,848.810,848.810,0.000,0.000,0
1507101310.955,848.810,817.555,848.810,845.520,0.000,0.000,0
1507101310.955,843.875,822.490,850.455,847.165,0.000,0.000,0
1507101310.955,850.455,819.200,850.455,853.745,0.000,0.000,0
1507101310.955,855.390,819.200,850.455,853.745,0.000,0.000,0
1507101310.955,840.585,812.620,850.455,837.295,0.000,0.000,0
1507101310.955,835.650,812.620,850.455,842.230,0.000,0.000,0
1507101310.955,834.005,822.490,850.455,840.585,0.000,0.000,0
1507101310.955,838.940,822.490,848.810,842.230,0.000,0.000,0
1507101310.955,842.230,820.845,847.165,848.810,0.000,0.000,0
1507101310.955,840.585,822.490,847.165,843.875,0.000,0.000,0
1507101310.955,825.780,820.845,850.455,838.940,0.000,0.000,0
1507101310.955,830.715,820.845,852.100,837.295,0.000,0.000,0
1507101310.955,838.940,819.200,850.455,842.230,0.000,0.000,0
1507101310.955,838.940,815.910,852.100,842.230,0.000,0.000,0
1507101311.008,838.940,819.200,852.100,843.875,0.000,0.000,0
1507101311.008,838.940,817.555,853.745,845.520,0.000,0.000,0
1507101311.008,840.585,817.555,852.100,843.875,0.000,0.000,0
1507101311.008,840.585,812.620,850.455,847.165,0.000,0.000,0
1507101311.008,837.295,817.555,852.100,843.875,0.000,0.000,0
1507101311.008,837.295,820.845,852.100,850.455,0.000,0.000,0
1507101311.008,842.230,820.845,852.100,847.165,0.000,0.000,0
1507101311.008,853.745,817.555,847.165,852.100,0.000,0.000,0
1507101311.008,847.165,812.620,845.520,850.455,0.000,0.000,0
1507101311.008,834.005,815.910,850.455,842.230,0.000,0.000,0
1507101311.008,840.585,819.200,848.810,852.100,0.000,0.000,0
1507101311.008,840.585,819.200,848.810,843.875,0.000,0.000,0
1507101311.008,843.875,815.910,847.165,835.650,0.000,0.000,0
1507101311.008,845.520,817.555,847.165,843.875,0.000,0.000,0
1507101311.008,845.520,820.845,853.745,847.165,0.000,0.000,0
1507101311.008,855.390,822.490,848.810,858.680,0.000,0.000,0
1507101311.073,850.455,819.200,847.165,850.455,0.000,0.000,0
1507101311.073,845.520,815.910,848.810,845.520,0.000,0.000,0
1507101311.073,834.005,817.555,847.165,838.940,0.000,0.000,0
1507101311.073,837.295,820.845,845.520,842.230,0.000,0.000,0
1507101311.073,838.940,815.910,842.230,843.875,0.000,0.000,0
1507101311.073,848.810,812.620,840.585,843.875,0.000,0.000,0
1507101311.073,838.940,819.200,845.520,848.810,0.000,0.000,0
1507101311.073,835.650,817.555,850.455,847.165,0.000,0.000,0
1507101311.073,845.520,820.845,847.165,850.455,0.000,0.000,0
1507101311.073,832.360,817.555,843.875,837.295,0.000,0.000,0
1507101311.073,835.650,814.265,847.165,837.295,0.000,0.000,0
1507101311.073,835.650,817.555,850.455,847.165,0.000,0.000,0
1507101311.073,838.940,817.555,850.455,843.875,0.000,0.000,0
1507101311.073,847.165,820.845,847.165,845.520,0.000,0.000,0
1507101311.073,847.165,815.910,845.520,848.810,0.000,0.000,0
1507101311.073,845.520,817.555,845.520,847.165,0.000,0.000,0
1507101311.158,838.940,817.555,850.455,853.745,0.000,0.000,0
1507101311.158,832.360,814.265,848.810,843.875,0.000,0.000,0
1507101311.158,837.295,815.910,847.165,843.875,0.000,0.000,0
1507101311.158,830.715,815.910,843.875,835.650,0.000,0.000,0
1507101311.158,834.005,819.200,847.165,840.585,0.000,0.000,0
1507101311.158,832.360,819.200,847.165,834.005,0.000,0.000,0
1507101311.158,837.295,815.910,842.230,834.005,0.000,0.000,0
1507101311.158,845.520,814.265,843.875,842.230,0.000,0.000,0
1507101311.158,838.940,814.265,847.165,840.585,0.000,0.000,0
1507101311.158,845.520,812.620,847.165,848.810,0.000,0.000,0
1507101311.158,842.230,814.265,845.520,845.520,0.000,0.000,0
1507101311.158,834.005,817.555,840.585,840.585,0.000,0.000,0
1507101311.158,835.650,817.555,843.875,843.875,0.000,0.000,0
1507101311.158,840.585,819.200,845.520,843.875,0.000,0.000,0
1507101311.158,835.650,819.200,847.165,840.585,0.000,0.000,0
1507101311.158,843.875,815.910,843.875,840.585,0.000,0.000,0
1507101311.226,842.230,819.200,842.230,832.360,0.000,0.000,0
1507101311.226,847.165,820.845,843.875,840.585,0.000,0.000,0
1507101311.226,847.165,820.845,845.520,842.230,0.000,0.000,0
1507101311.226,847.165,819.200,843.875,842.230,0.000,0.000,0
1507101311.226,847.165,817.555,842.230,842.230,0.000,0.000,0
1507101311.226,840.585,822.490,845.520,837.295,0.000,0.000,0
1507101311.226,847.165,819.200,847.165,850.455,0.000,0.000,0
1507101311.226,845.520,814.265,845.520,852.100,0.000,0.000,0
1507101311.226,835.650,819.200,843.875,838.940,0.000,0.000,0
1507101311.226,838.940,822.490,843.875,835.650,0.000,0.000,0
1507101311.226,837.295,824.135,845.520,837.295,0.000,0.000,0
1507101311.226,850.455,824.135,845.520,847.165,0.000,0.000,0
1507101311.226,847.165,817.555,845.520,845.520,0.000,0.000,0
1507101311.226,847.165,817.555,842.230,843.875,0.000,0.000,0
1507101311.226,840.585,822.490,847.165,847.165,0.000,0.000,0
1507101311.226,840.585,819.200,852.100,848.810,0.000,0.000,0
1507101311.291,843.875,822.490,847.165,853.745,0.000,0.000,0
1507101311.291,835.650,817.555,845.520,843.875,0.000,0.000,0
1507101311.291,835.650,824.135,847.165,840.585,0.000,0.000,0
1507101311.291,837.295,822.490,847.165,853.745,0.000,0.000,0
1507101311.291,842.230,817.555,848.810,847.165,0.000,0.000,0
1507101311.291,847.165,819.200,845.520,847.165,0.000,0.000,0
1507101311.291,842.230,817.555,843.875,847.165,0.000,0.000,0
1507101311.291,834.005,820.845,848.810,837.295,0.000,0.000,0
1507101311.291,834.005,822.490,847.165,843.875,0.000,0.000,0
1507101311.291,837.295,820.845,847.165,835.650,0.000,0.000,0
1507101311.291,840.585,815.910,843.875,835.650,0.000,0.000,0
1507101311.291,843.875,817.555,843.875,840.585,0.000,0.000,0
1507101311.291,850.455,820.845,847.165,843.875,0.000,0.000,0
1507101311.291,845.520,815.910,848.810,845.520,0.000,0.000,0
1507101311.291,840.585,817.555,848.810,838.940,0.000,0.000,0
1507101311.291,850.455,815.910,848.810,848.810,0.000,0.000,0
1507101311.378,835.650,817.555,852.100,847.165,0.000,0.000,0
1507101311.378,840.585,825.780,848.810,842.230,0.000,0.000,0
1507101311.378,845.520,822.490,847.165,845.520,0.000,0.000,0
1507101311.378,834.005,819.200,843.875,830.715,0.000,0.000,0
1507101311.378,837.295,820.845,843.875,845.520,0.000,0.000,0
1507101311.378,834.005,817.555,847.165,843.875,0.000,0.000,0
1507101311.378,834.005,817.555,848.810,837.295,0.000,0.000,0
1507101311.378,842.230,815.910,843.875,858.680,0.000,0.000,0
1507101311.378,845.520,817.555,845.520,860.325,0.000,0.000,0
1507101311.378,847.165,820.845,847.165,868.550,0.000,0.000,0
1507101311.378,840.585,819.200,847.165,855.390,0.000,0.000,0
1507101311.378,837.295,819.200,847.165,845.520,0.000,0.000,0
1507101311.378,832.360,815.910,843.875,842.230,0.000,0.000,0
1507101311.378,829.070,819.200,848.810,832.360,0.000,0.000,0
1507101311.378,840.585,820.845,848.810,845.520,0.000,0.000,0
1507101311.378,840.585,819.200,847.165,837.295,0.000,0.000,0
1507101311.378,845.520,817.555,845.520,838.940,0.000,0.000,0
1507101311.441,845.520,814.265,845.520,845.520,0.000,0.000,0
1507101311.441,842.230,817.555,850.455,842.230,0.000,0.000,0
1507101311.441,842.230,817.555,845.520,832.360,0.000,0.000,0
1507101311.441,848.810,814.265,843.875,850.455,0.000,0.000,0
1507101311.441,842.230,815.910,843.875,840.585,0.000,0.000,0
1507101311.441,840.585,815.910,848.810,845.520,0.000,0.000,0
1507101311.441,843.875,814.265,848.810,850.455,0.000,0.000,0
1507101311.441,827.425,815.910,848.810,835.650,0.000,0.000,0
1507101311.441,838.940,817.555,847.165,834.005,0.000,0.000,0
1507101311.441,843.875,819.200,847.165,837.295,0.000,0.000,0
1507101311.441,842.230,819.200,850.455,842.230,0.000,0.000,0
1507101311.441,845.520,817.555,850.455,845.520,0.000,0.000,0
1507101311.441,843.875,812.620,848.810,843.875,0.000,0.000,0
1507101311.441,845.520,817.555,848.810,843.875,0.000,0.000,0
1507101311.441,850.455,825.780,848.810,848.810,0.000,0.000,0
1507101311.441,848.810,817.555,848.810,852.100,0.000,0.000,0
1507101311.523,842.230,822.490,848.810,850.455,0.000,0.000,0
1507101311.523,845.520,817.555,847.165,847.165,0.000,0.000,0
1507101311.523,840.585,819.200,850.455,848.810,0.000,0.000,0
1507101311.523,838.940,824.135,848.810,848.810,0.000,0.000,0
1507101311.523,847.165,820.845,847.165,853.745,0.000,0.000,0
1507101311.523,845.520,819.200,843.875,848.810,0.000,0.000,0
1507101311.523,845.520,820.845,843.875,843.875,0.000,0.000,0
1507101311.523,850.455,822.490,848.810,857.035,0.000,0.000,0
1507101311.523,842.230,817.555,848.810,845.520,0.000,0.000,0
1507101311.523,840.585,814.265,845.520,847.165,0.000,0.000,0
1507101311.523,838.940,817.555,847.165,843.875,0.000,0.000,0
1507101311.523,834.005,822.490,848.810,837.295,0.000,0.000,0
1507101311.523,835.650,820.845,850.455,835.650,0.000,0.000,0
1507101311.523,843.875,822.490,847.165,838.940,0.000,0.000,0
1507101311.523,838.940,814.265,843.875,837.295,0.000,0.000,0
1507101311.523,832.360,815.910,847.165,835.650,0.000,0.000,0
1507101311.592,840.585,819.200,850.455,845.520,0.000,0.000,0
1507101311.592,842.230,814.265,848.810,837.295,0.000,0.000,0
1507101311.592,840.585,815.910,847.165,837.295,0.000,0.000,0
1507101311.592,840.585,819.200,847.165,842.230,0.000,0.000,0
1507101311.592,837.295,820.845,848.810,837.295,0.000,0.000,0
1507101311.592,843.875,822.490,850.455,847.165,0.000,0.000,0
1507101311.592,848.810,815.910,845.520,848.810,0.000,0.000,0
1507101311.592,842.230,814.265,843.875,842.230,0.000,0.000,0
1507101311.592,837.295,820.845,848.810,842.230,0.000,0.000,0
1507101311.592,842.230,817.555,850.455,852.100,0.000,0.000,0
1507101311.592,838.940,819.200,852.100,843.875,0.000,0.000,0
1507101311.592,847.165,817.555,850.455,855.390,0.000,0.000,0
1507101311.592,838.940,817.555,847.165,850.455,0.000,0.000,0
1507101311.592,835.650,819.200,850.455,847.165,0.000,0.000,0
1507101311.592,838.940,822.490,850.455,845.520,0.000,0.000,0
1507101311.592,840.585,819.200,848.810,847.165,0.000,0.000,0
1507101311.656,845.520,817.555,848.810,848.810,0.000,0.000,0
1507101311.656,842.230,819.200,850.455,850.455,0.000,0.000,0
1507101311.656,840.585,817.555,850.455,847.165,0.000,0.000,0
1507101311.656,843.875,815.910,848.810,840.585,0.000,0.000,0
1507101311.656,843.875,817.555,847.165,840.585,0.000,0.000,0
1507101311.656,838.940,815.910,845.520,848.810,0.000,0.000,0
1507101311.656,832.360,819.200,850.455,843.875,0.000,0.000,0
1507101311.656,830.715,819.200,848.810,834.005,0.000,0.000,0
1507101311.656,837.295,819.200,845.520,834.005,0.000,0.000,0
1507101311.656,838.940,819.200,845.520,830.715,0.000,0.000,0
1507101311.656,834.005,820.845,848.810,840.585,0.000,0.000,0
1507101311.656,838.940,820.845,848.810,838.940,0.000,0.000,0
1507101311.656,834.005,815.910,850.455,840.585,0.000,0.000,0
1507101311.656,832.360,815.910,847.165,832.360,0.000,0.000,0
1507101311.656,832.360,814.265,847.165,840.585,0.000,0.000,0
1507101311.656,830.715,817.555,848.810,842.230,0.000,0.000,0
1507101311.740,835.650,814.265,843.875,840.585,0.000,0.000,0
1507101311.740,837.295,812.620,843.875,848.810,0.000,0.000,0
1507101311.740,830.715,822.490,845.520,837.295,0.000,0.000,0
1507101311.740,835.650,820.845,847.165,847.165,0.000,0.000,0
1507101311.740,834.005,820.845,847.165,848.810,0.000,0.000,0
1507101311.740,830.715,819.200,845.520,835.650,0.000,0.000,0
1507101311.740,834.005,810.975,845.520,840.585,0.000,0.000,0
1507101311.740,827.425,820.845,848.810,834.005,0.000,0.000,0
1507101311.740,837.295,825.780,850.455,842.230,0.000,0.000,0
1507101311.740,838.940,819.200,847.165,843.875,0.000,0.000,0
1507101311.740,835.650,819.200,845.520,834.005,0.000,0.000,0
1507101311.740,834.005,820.845,843.875,834.005,0.000,0.000,0
1507101311.740,837.295,822.490,848.810,838.940,0.000,0.000,0
1507101311.740,840.585,824.135,848.810,845.520,0.000,0.000,0
1507101311.740,842.230,822.490,847.165,838.940,0.000,0.000,0
1507101311.740,850.455,817.555,842.230,847.165,0.000,0.000,0
1507101311.807,838.940,820.845,847.165,840.585,0.000,0.000,0
1507101311.807,842.230,820.845,847.165,838.940,0.000,0.000,0
1507101311.807,835.650,819.200,845.520,840.585,0.000,0.000,0
1507101311.807,842.230,819.200,847.165,842.230,0.000,0.000,0
1507101311.807,842.230,819.200,843.875,843.875,0.000,0.000,0
1507101311.807,838.940,824.135,847.165,843.875,0.000,0.000,0
1507101311.807,847.165,824.135,845.520,848.810,0.000,0.000,0
1507101311.807,838.940,819.200,842.230,837.295,0.000,0.000,0
1507101311.807,847.165,817.555,843.875,842.230,0.000,0.000,0
1507101311.807,848.810,825.780,845.520,855.390,0.000,0.000,0
1507101311.807,840.585,822.490,848.810,842.230,0.000,0.000,0
1507101311.807,848.810,825.780,847.165,850.455,0.000,0.000,0
1507101311.807,847.165,820.845,843.875,847.165,0.000,0.000,0
1507101311.807,840.585,822.490,848.810,843.875,0.000,0.000,0
1507101311.807,845.520,825.780,847.165,838.940,0.000,0.000,0
1507101311.807,852.100,825.780,847.165,848.810,0.000,0.000,0
1507101311.891,850.455,824.135,845.520,842.230,0.000,0.000,0
1507101311.891,845.520,822.490,845.520,842.230,0.000,0.000,0
1507101311.891,843.875,824.135,850.455,845.520,0.000,0.000,0
1507101311.891,845.520,825.780,850.455,838.940,0.000,0.000,0
1507101311.891,850.455,820.845,850.455,837.295,0.000,0.000,0
1507101311.891,852.100,819.200,845.520,843.875,0.000,0.000,0
1507101311.891,838.940,822.490,850.455,838.940,0.000,0.000,0
1507101311.891,842.230,822.490,850.455,843.875,0.000,0.000,0
1507101311.891,848.810,819.200,848.810,848.810,0.000,0.000,0
1507101311.891,857.035,820.845,847.165,842.230,0.000,0.000,0
1507101311.891,858.680,824.135,845.520,855.390,0.000,0.000,0
1507101311.891,847.165,827.425,848.810,845.520,0.000,0.000,0
1507101311.891,847.165,822.490,847.165,840.585,0.000,0.000,0
1507101311.891,848.810,819.200,843.875,842.230,0.000,0.000,0
1507101311.891,843.875,815.910,843.875,840.585,0.000,0.000,0
1507101311.891,843.875,819.200,847.165,845.520,0.000,0.000,0
1507101311.956,842.230,822.490,848.810,834.005,0.000,0.000,0
1507101311.956,840.585,817.555,847.165,832.360,0.000,0.000,0
1507101311.956,848.810,815.910,842.230,838.940,0.000,0.000,0
1507101311.956,843.875,819.200,845.520,838.940,0.000,0.000,0
1507101311.956,837.295,820.845,847.165,843.875,0.000,0.000,0
1507101311.956,838.940,817.555,845.520,843.875,0.000,0.000,0
1507101311.956,842.230,819.200,847.165,838.940,0.000,0.000,0
1507101311.956,845.520,814.265,845.520,850.455,0.000,0.000,0
1507101311.956,843.875,819.200,848.810,850.455,0.000,0.000,0
1507101311.956,840.585,820.845,852.100,838.940,0.000,0.000,0
1507101311.956,853.745,817.555,850.455,845.520,0.000,0.000,0
1507101311.956,852.100,819.200,848.810,848.810,0.000,0.000,0
1507101311.956,847.165,815.910,850.455,853.745,0.000,0.000,0
1507101311.956,840.585,812.620,848.810,852.100,0.000,0.000,0
1507101311.956,835.650,817.555,848.810,847.165,0.000,0.000,0
1507101311.956,843.875,820.845,847.165,838.940,0.000,0.000,0
1507101311.956,843.875,820.845,848.810,845.520,0.000,0.000,0
1507101312.041,840.585,820.845,850.455,843.875,0.000,0.000,0
1507101312.041,842.230,820.845,852.100,843.875,0.000,0.000,0
1507101312.041,845.520,819.200,850.455,843.875,0.000,0.000,0
1507101312.041,845.520,817.555,847.165,847.165,0.000,0.000,0
1507101312.041,847.165,820.845,847.165,847.165,0.000,0.000,0
1507101312.041,850.455,815.910,845.520,853.745,0.000,0.000,0
1507101312.041,847.165,819.200,847.165,840.585,0.000,0.000,0
1507101312.041,855.390,819.200,845.520,842.230,0.000,0.000,0
1507101312.041,847.165,817.555,848.810,848.810,0.000,0.000,0
1507101312.041,847.165,827.425,852.100,842.230,0.000,0.000,0
1507101312.041,848.810,820.845,850.455,852.100,0.000,0.000,0
1507101312.041,838.940,814.265,847.165,845.520,0.000,0.000,0
1507101312.041,835.650,812.620,847.165,843.875,0.000,0.000,0
1507101312.041,834.005,810.975,850.455,853.745,0.000,0.000,0
1507101312.041,832.360,817.555,852.100,848.810,0.000,0.000,0
1507101312.041,840.585,819.200,850.455,842.230,0.000,0.000,0
1507101312.105,850.455,815.910,845.520,852.100,0.000,0.000,0
1507101312.105,838.940,817.555,850.455,845.520,0.000,0.000,0
1507101312.105,845.520,815.910,850.455,847.165,0.000,0.000,0
1507101312.105,837.295,815.910,852.100,848.810,0.000,0.000,0
1507101312.105,830.715,814.265,850.455,830.715,0.000,0.000,0
1507101312.105,843.875,812.620,845.520,845.520,0.000,0.000,0
1507101312.105,835.650,825.780,850.455,840.585,0.000,0.000,0
1507101312.105,847.165,819.200,847.165,848.810,0.000,0.000,0
1507101312.105,847.165,819.200,845.520,850.455,0.000,0.000,0
1507101312.105,847.165,820.845,845.520,842.230,0.000,0.000,0
1507101312.105,843.875,820.845,847.165,848.810,0.000,0.000,0
1507101312.105,838.940,827.425,850.455,838.940,0.000,0.000,0
1507101312.105,847.165,824.135,848.810,845.520,0.000,0.000,0
1507101312.105,847.165,819.200,845.520,843.875,0.000,0.000,0
1507101312.105,843.875,817.555,845.520,848.810,0.000,0.000,0
1507101312.105,842.230,824.135,850.455,842.230,0.000,0.000,0
1507101312.171,847.165,820.845,845.520,845.520,0.000,0.000,0
1507101312.171,848.810,824.135,845.520,843.875,0.000,0.000,0
1507101312.171,845.520,822.490,845.520,838.940,0.000,0.000,0
1507101312.171,837.295,822.490,847.165,843.875,0.000,0.000,0
1507101312.171,835.650,820.845,850.455,845.520,0.000,0.000,0
1507101312.171,843.875,820.845,848.810,847.165,0.000,0.000,0
1507101312.171,848.810,819.200,845.520,848.810,0.000,0.000,0
1507101312.171,842.230,820.845,852.100,843.875,0.000,0.000,0
1507101312.171,838.940,819.200,852.100,840.585,0.000,0.000,0
1507101312.171,843.875,815.910,850.455,845.520,0.000,0.000,0
1507101312.171,848.810,814.265,843.875,847.165,0.000,0.000,0
1507101312.171,840.585,817.555,845.520,842.230,0.000,0.000,0
1507101312.171,840.585,820.845,848.810,848.810,0.000,0.000,0
1507101312.171,838.940,822.490,847.165,840.585,0.000,0.000,0
1507101312.171,842.230,819.200,848.810,838.940,0.000,0.000,0
1507101312.171,847.165,815.910,843.875,842.230,0.000,0.000,0
1507101312.266,837.295,822.490,847.165,838.940,0.000,0.000,0
1507101312.266,843.875,822.490,852.100,842.230,0.000,0.000,0
1507101312.266,848.810,827.425,850.455,850.455,0.000,0.000,0
1507101312.266,843.875,819.200,852.100,847.165,0.000,0.000,0
1507101312.266,847.165,815.910,850.455,850.455,0.000,0.000,0
1507101312.266,837.295,820.845,850.455,850.455,0.000,0.000,0
1507101312.266,840.585,817.555,852.100,847.165,0.000,0.000,0
1507101312.266,845.520,819.200,848.810,850.455,0.000,0.000,0
1507101312.266,835.650,817.555,847.165,838.940,0.000,0.000,0
1507101312.266,838.940,817.555,852.100,840.585,0.000,0.000,0
1507101312.266,835.650,820.845,850.455,840.585,0.000,0.000,0
1507101312.266,840.585,819.200,850.455,835.650,0.000,0.000,0
1507101312.266,847.165,815.910,847.165,852.100,0.000,0.000,0
1507101312.266,838.940,820.845,847.165,840.585,0.000,0.000,0
1507101312.266,843.875,819.200,848.810,850.455,0.000,0.000,0
1507101312.266,838.940,819.200,848.810,850.455,0.000,0.000,0
1507101312.321,843.875,820.845,847.165,840.585,0.000,0.000,0
1507101312.321,847.165,815.910,845.520,852.100,0.000,0.000,0
1507101312.321,842.230,819.200,848.810,852.100,0.000,0.000,0
1507101312.321,845.520,817.555,848.810,865.260,0.000,0.000,0
1507101312.321,845.520,820.845,845.520,858.680,0.000,0.000,0
1507101312.321,843.875,822.490,845.520,855.390,0.000,0.000,0
1507101312.321,837.295,827.425,850.455,848.810,0.000,0.000,0
1507101312.321,840.585,822.490,852.100,850.455,0.000,0.000,0
1507101312.321,842.230,819.200,852.100,848.810,0.000,0.000,0
1507101312.321,838.940,820.845,848.810,843.875,0.000,0.000,0
1507101312.321,835.650,819.200,850.455,842.230,0.000,0.000,0
1507101312.321,830.715,822.490,852.100,838.940,0.000,0.000,0
1507101312.321,838.940,822.490,848.810,843.875,0.000,0.000,0
1507101312.321,843.875,814.265,847.165,847.165,0.000,0.000,0
1507101312.321,842.230,817.555,847.165,845.520,0.000,0.000,0
1507101312.321,840.585,824.135,852.100,843.875,0.000,0.000,0
1507101312.387,830.715,820.845,852.100,837.295,0.000,0.000,0
1507101312.387,837.295,822.490,850.455,834.005,0.000,0.000,0
1507101312.387,840.585,815.910,847.165,842.230,0.000,0.000,0
1507101312.387,834.005,817.555,848.810,842.230,0.000,0.000,0
1507101312.387,840.585,822.490,850.455,845.520,0.000,0.000,0
1507101312.387,842.230,819.200,848.810,845.520,0.000,0.000,0
1507101312.387,845.520,817.555,847.165,852.100,0.000,0.000,0
1507101312.387,838.940,815.910,848.810,842.230,0.000,0.000,0
1507101312.387,840.585,819.200,853.745,850.455,0.000,0.000,0
1507101312.387,842.230,825.780,852.100,842.230,0.000,0.000,0
1507101312.387,847.165,815.910,848.810,842.230,0.000,0.000,0
1507101312.387,847.165,815.910,843.875,843.875,0.000,0.000,0
1507101312.387,843.875,819.200,848.810,838.940,0.000,0.000,0
1507101312.387,837.295,819.200,852.100,838.940,0.000,0.000,0
1507101312.387,842.230,817.555,852.100,842.230,0.000,0.000,0
1507101312.387,847.165,815.910,847.165,840.585,0.000,0.000,0
1507101312.471,837.295,815.910,847.165,840.585,0.000,0.000,0
1507101312.471,834.005,820.845,850.455,838.940,0.000,0.000,0
1507101312.471,843.875,822.490,850.455,840.585,0.000,0.000,0
1507101312.471,835.650,819.200,847.165,834.005,0.000,0.000,0
1507101312.471,840.585,812.620,845.520,840.585,0.000,0.000,0
1507101312.471,834.005,817.555,852.100,838.940,0.000,0.000,0
1507101312.471,834.005,820.845,852.100,840.585,0.000,0.000,0
1507101312.471,843.875,815.910,850.455,847.165,0.000,0.000,0
1507101312.471,837.295,817.555,843.875,835.650,0.000,0.000,0
1507101312.471,838.940,817.555,843.875,835.650,0.000,0.000,0
1507101312.471,837.295,824.135,847.165,835.650,0.000,0.000,0
1507101312.471,843.875,824.135,847.165,832.360,0.000,0.000,0
1507101312.471,855.390,820.845,842.230,845.520,0.000,0.000,0
1507101312.471,845.520,817.555,842.230,835.650,0.000,0.000,0
1507101312.471,847.165,815.910,847.165,838.940,0.000,0.000,0
1507101312.471,847.165,820.845,850.455,842.230,0.000,0.000,0
1507101312.537,850.455,822.490,848.810,843.875,0.000,0.000,0
1507101312.537,852.100,817.555,843.875,845.520,0.000,0.000,0
1507101312.537,847.165,825.780,847.165,847.165,0.000,0.000,0
1507101312.537,847.165,829.070,850.455,843.875,0.000,0.000,0
1507101312.537,850.455,825.780,848.810,845.520,0.000,0.000,0
1507101312.537,847.165,822.490,847.165,843.875,0.000,0.000,0
1507101312.537,852.100,817.555,843.875,845.520,0.000,0.000,0
1507101312.537,845.520,815.910,847.165,853.745,0.000,0.000,0
1507101312.537,840.585,819.200,852.100,850.455,0.000,0.000,0
1507101312.537,848.810,819.200,850.455,853.745,0.000,0.000,0
1507101312.537,845.520,817.555,847.165,857.035,0.000,0.000,0
1507101312.537,835.650,817.555,850.455,843.875,0.000,0.000,0
1507101312.537,838.940,817.555,850.455,842.230,0.000,0.000,0
1507101312.537,842.230,819.200,848.810,847.165,0.000,0.000,0
1507101312.537,843.875,819.200,847.165,834.005,0.000,0.000,0
1507101312.537,852.100,817.555,845.520,850.455,0.000,0.000,0
1507101312.537,834.005,824.135,850.455,834.005,0.000,0.000,0
1507101312.621,840.585,820.845,847.165,835.650,0.000,0.000,0
1507101312.621,837.295,817.555,843.875,837.295,0.000,0.000,0
1507101312.621,840.585,817.555,843.875,832.360,0.000,0.000,0
1507101312.621,842.230,817.555,845.520,843.875,0.000,0.000,0
1507101312.621,838.940,819.200,848.810,843.875,0.000,0.000,0
1507101312.621,850.455,817.555,850.455,847.165,0.000,0.000,0
1507101312.621,855.390,815.910,847.165,848.810,0.000,0.000,0
1507101312.621,853.745,815.910,845.520,860.325,0.000,0.000,0
1507101312.621,845.520,827.425,852.100,847.165,0.000,0.000,0
1507101312.621,855.390,827.425,848.810,858.680,0.000,0.000,0
1507101312.621,848.810,824.135,845.520,857.035,0.000,0.000,0
1507101312.621,850.455,814.265,845.520,857.035,0.000,0.000,0
1507101312.621,843.875,820.845,848.810,857.035,0.000,0.000,0
1507101312.621,842.230,820.845,850.455,853.745,0.000,0.000,0
1507101312.621,845.520,815.910,847.165,857.035,0.000,0.000,0
1507101312.621,848.810,815.910,845.520,860.325,0.000,0.000,0
1507101312.687,847.165,819.200,847.165,863.615,0.000,0.000,0
1507101312.687,835.650,820.845,847.165,860.325,0.000,0.000,0
1507101312.687,838.940,822.490,850.455,850.455,0.000,0.000,0
1507101312.687,842.230,815.910,845.520,848.810,0.000,0.000,0
1507101312.687,830.715,819.200,845.520,840.585,0.000,0.000,0
1507101312.687,835.650,824.135,850.455,835.650,0.000,0.000,0
1507101312.687,842.230,824.135,848.810,842.230,0.000,0.000,0
1507101312.687,842.230,824.135,845.520,842.230,0.000,0.000,0
1507101312.687,840.585,817.555,843.875,835.650,0.000,0.000,0
1507101312.687,842.230,822.490,845.520,832.360,0.000,0.000,0
1507101312.687,842.230,822.490,850.455,832.360,0.000,0.000,0
1507101312.687,850.455,817.555,847.165,840.585,0.000,0.000,0
1507101312.687,852.100,819.200,845.520,843.875,0.000,0.000,0
1507101312.687,840.585,815.910,848.810,845.520,0.000,0.000,0
1507101312.687,834.005,815.910,852.100,843.875,0.000,0.000,0
1507101312.687,847.165,817.555,852.100,852.100,0.000,0.000,0
1507101312.753,850.455,817.555,850.455,855.390,0.000,0.000,0
1507101312.753,853.745,817.555,852.100,857.035,0.000,0.000,0
1507101312.753,847.165,822.490,852.100,852.100,0.000,0.000,0
1507101312.753,850.455,822.490,850.455,857.035,0.000,0.000,0
1507101312.753,847.165,815.910,848.810,853.745,0.000,0.000,0
1507101312.753,848.810,820.845,843.875,850.455,0.000,0.000,0
1507101312.753,842.230,815.910,845.520,852.100,0.000,0.000,0
1507101312.753,840.585,817.555,852.100,847.165,0.000,0.000,0
1507101312.753,848.810,819.200,848.810,852.100,0.000,0.000,0
1507101312.753,842.230,819.200,847.165,835.650,0.000,0.000,0
1507101312.753,848.810,819.200,847.165,843.875,0.000,0.000,0
1507101312.753,847.165,820.845,852.100,847.165,0.000,0.000,0
1507101312.753,842.230,824.135,850.455,838.940,0.000,0.000,0
1507101312.753,842.230,820.845,847.165,825.780,0.000,0.000,0
1507101312.753,842.230,819.200,840.585,827.425,0.000,0.000,0
1507101312.753,834.005,820.845,843.875,815.910,0.000,0.000,0
1507101312.836,848.810,819.200,847.165,827.425,0.000,0.000,0
1507101312.836,850.455,824.135,847.165,835.650,0.000,0.000,0
1507101312.836,847.165,824.135,845.520,829.070,0.000,0.000,0
1507101312.836,855.390,822.490,845.520,845.520,0.000,0.000,0
1507101312.836,850.455,817.555,850.455,852.100,0.000,0.000,0
1507101312.836,852.100,820.845,850.455,847.165,0.000,0.000,0
1507101312.836,850.455,817.555,848.810,850.455,0.000,0.000,0
1507101312.836,847.165,817.555,847.165,848.810,0.000,0.000,0
1507101312.836,840.585,819.200,848.810,838.940,0.000,0.000,0
1507101312.836,838.940,815.910,850.455,845.520,0.000,0.000,0
1507101312.836,832.360,819.200,848.810,842.230,0.000,0.000,0
1507101312.836,835.650,819.200,848.810,830.715,0.000,0.000,0
1507101312.836,834.005,819.200,848.810,835.650,0.000,0.000,0
1507101312.836,834.005,817.555,848.810,834.005,0.000,0.000,0
1507101312.836,837.295,817.555,848.810,835.650,0.000,0.000,0
1507101312.836,835.650,815.910,847.165,837.295,0.000,0.000,0
1507101312.902,845.520,819.200,845.520,834.005,0.000,0.000,0
1507101312.902,848.810,824.135,847.165,840.585,0.000,0.000,0
1507101312.902,850.455,815.910,848.810,845.520,0.000,0.000,0
1507101312.902,848.810,817.555,848.810,843.875,0.000,0.000,0
1507101312.902,847.165,814.265,848.810,838.940,0.000,0.000,0
1507101312.902,840.585,817.555,847.165,834.005,0.000,0.000,0
1507101312.902,840.585,825.780,848.810,834.005,0.000,0.000,0
1507101312.902,842.230,820.845,847.165,830.715,0.000,0.000,0
1507101312.902,835.650,819.200,847.165,819.200,0.000,0.000,0
1507101312.902,840.585,814.265,843.875,825.780,0.000,0.000,0
1507101312.902,843.875,822.490,847.165,835.650,0.000,0.000,0
1507101312.902,848.810,820.845,845.520,847.165,0.000,0.000,0
1507101312.902,852.100,820.845,848.810,842.230,0.000,0.000,0
1507101312.902,852.100,815.910,845.520,845.520,0.000,0.000,0
1507101312.902,850.455,820.845,850.455,843.875,0.000,0.000,0
1507101312.902,853.745,822.490,850.455,850.455,0.000,0.000,0
1507101312.987,855.390,824.135,848.810,852.100,0.000,0.000,0
1507101312.987,852.100,824.135,848.810,842.230,0.000,0.000,0
1507101312.987,855.390,820.845,848.810,848.810,0.000,0.000,0
1507101312.987,847.165,824.135,852.100,852.100,0.000,0.000,0
1507101312.987,842.230,822.490,850.455,850.455,0.000,0.000,0
1507101312.987,852.100,817.555,847.165,852.100,0.000,0.000,0
1507101312.987,848.810,822.490,848.810,840.585,0.000,0.000,0
1507101312.987,853.745,824.135,852.100,848.810,0.000,0.000,0
1507101312.987,855.390,822.490,853.745,847.165,0.000,0.000,0
1507101312.987,852.100,819.200,852.100,843.875,0.000,0.000,0
1507101312.987,855.390,819.200,845.520,843.875,0.000,0.000,0
1507101312.987,840.585,820.845,845.520,832.360,0.000,0.000,0
1507101312.987,845.520,827.425,848.810,843.875,0.000,0.000,0
1507101312.987,845.520,820.845,852.100,840.585,0.000,0.000,0
1507101312.987,850.455,814.265,850.455,837.295,0.000,0.000,0
1507101312.987,853.745,815.910,847.165,843.875,0.000,0.000,0
1507101313.052,843.875,822.490,853.745,832.360,0.000,0.000,0
1507101313.052,852.100,822.490,850.455,847.165,0.000,0.000,0
1507101313.052,847.165,824.135,850.455,845.520,0.000,0.000,0
1507101313.052,855.390,822.490,848.810,848.810,0.000,0.000,0
1507101313.052,845.520,819.200,848.810,843.875,0.000,0.000,0
1507101313.052,845.520,820.845,850.455,848.810,0.000,0.000,0
1507101313.052,848.810,825.780,852.100,842.230,0.000,0.000,0
1507101313.052,848.810,814.265,847.165,842.230,0.000,0.000,0
1507101313.052,848.810,814.265,843.875,847.165,0.000,0.000,0
1507101313.052,838.940,817.555,852.100,835.650,0.000,0.000,0
1507101313.052,845.520,814.265,852.100,850.455,0.000,0.000,0
1507101313.052,848.810,817.555,850.455,845.520,0.000,0.000,0
1507101313.052,848.810,820.845,850.455,847.165,0.000,0.000,0
1507101313.052,843.875,825.780,853.745,843.875,0.000,0.000,0
1507101313.052,845.520,824.135,853.745,848.810,0.000,0.000,0
1507101313.052,843.875,820.845,852.100,843.875,0.000,0.000,0
1507101313.120,853.745,817.555,850.455,848.810,0.000,0.000,0
1507101313.120,843.875,819.200,850.455,843.875,0.000,0.000,0
1507101313.120,842.230,824.135,852.100,843.875,0.000,0.000,0
1507101313.120,837.295,820.845,850.455,837.295,0.000,0.000,0
1507101313.120,845.520,815.910,843.875,835.650,0.000,0.000,0
1507101313.120,848.810,815.910,845.520,837.295,0.000,0.000,0
1507101313.120,840.585,819.200,845.520,845.520,0.000,0.000,0
1507101313.120,838.940,824.135,850.455,842.230,0.000,0.000,0
1507101313.120,842.230,822.490,850.455,840.585,0.000,0.000,0
1507101313.120,847.165,820.845,845.520,838.940,0.000,0.000,0
1507101313.120,845.520,820.845,850.455,843.875,0.000,0.000,0
1507101313.120,853.745,822.490,848.810,857.035,0.000,0.000,0
1507101313.120,855.390,822.490,848.810,857.035,0.000,0.000,0
1507101313.120,857.035,820.845,845.520,855.390,0.000,0.000,0
1507101313.120,850.455,820.845,847.165,847.165,0.000,0.000,0
1507101313.120,848.810,820.845,848.810,853.745,0.000,0.000,0
1507101313.120,845.520,819.200,850.455,853.745,0.000,0.000,0
1507101313.202,847.165,824.135,850.455,845.520,0.000,0.000,0
1507101313.202,848.810,817.555,845.520,847.165,0.000,0.000,0
1507101313.202,845.520,817.555,845.520,845.520,0.000,0.000,0
1507101313.202,847.165,822.490,845.520,843.875,0.000,0.000,0
1507101313.202,845.520,817.555,843.875,847.165,0.000,0.000,0
1507101313.202,847.165,817.555,842.230,830.715,0.000,0.000,0
1507101313.202,843.875,812.620,842.230,837.295,0.000,0.000,0
1507101313.202,840.585,819.200,843.875,837.295,0.000,0.000,0
1507101313.202,842.230,820.845,845.520,834.005,0.000,0.000,0
1507101313.202,842.230,817.555,840.585,840.585,0.000,0.000,0
1507101313.202,837.295,815.910,840.585,832.360,0.000,0.000,0
1507101313.202,834.005,819.200,843.875,834.005,0.000,0.000,0
1507101313.202,837.295,820.845,843.875,835.650,0.000,0.000,0
1507101313.202,830.715,817.555,842.230,837.295,0.000,0.000,0
1507101313.202,835.650,817.555,840.585,832.360,0.000,0.000,0
1507101313.202,835.650,817.555,845.520,838.940,0.000,0.000,0
1507101313.268,840.585,820.845,848.810,845.520,0.000,0.000,0
1507101313.268,845.520,820.845,850.455,843.875,0.000,0.000,0
1507101313.268,843.875,815.910,847.165,840.585,0.000,0.000,0
1507101313.268,845.520,812.620,843.875,838.940,0.000,0.000,0
1507101313.268,845.520,814.265,847.165,845.520,0.000,0.000,0
1507101313.268,843.875,819.200,847.165,842.230,0.000,0.000,0
1507101313.268,850.455,815.910,842.230,853.745,0.000,0.000,0
1507101313.268,845.520,812.620,843.875,845.520,0.000,0.000,0
1507101313.268,847.165,820.845,847.165,845.520,0.000,0.000,0
1507101313.268,847.165,817.555,850.455,853.745,0.000,0.000,0
1507101313.268,848.810,820.845,852.100,848.810,0.000,0.000,0
1507101313.268,857.035,815.910,850.455,858.680,0.000,0.000,0
1507101313.268,853.745,812.620,853.745,855.390,0.000,0.000,0
1507101313.268,845.520,819.200,858.680,860.325,0.000,0.000,0
1507101313.268,850.455,819.200,853.745,850.455,0.000,0.000,0
1507101313.269,853.745,820.845,850.455,848.810,0.000,0.000,0
1507101313.352,852.100,814.265,847.165,848.810,0.000,0.000,0
1507101313.352,852.100,814.265,848.810,843.875,0.000,0.000,0
1507101313.352,847.165,817.555,853.745,845.520,0.000,0.000,0
1507101313.352,847.165,820.845,853.745,845.520,0.000,0.000,0
1507101313.352,858.680,820.845,852.100,843.875,0.000,0.000,0
1507101313.352,852.100,817.555,848.810,852.100,0.000,0.000,0
1507101313.352,842.230,820.845,852.100,843.875,0.000,0.000,0
1507101313.352,848.810,824.135,850.455,852.100,0.000,0.000,0
1507101313.352,847.165,820.845,848.810,840.585,0.000,0.000,0
1507101313.352,850.455,817.555,845.520,842.230,0.000,0.000,0
1507101313.352,843.875,815.910,848.810,842.230,0.000,0.000,0
1507101313.352,842.230,817.555,847.165,840.585,0.000,0.000,0
1507101313.352,847.165,822.490,850.455,840.585,0.000,0.000,0
1507101313.352,843.875,822.490,848.810,842.230,0.000,0.000,0
1507101313.352,845.520,824.135,848.810,840.585,0.000,0.000,0
1507101313.352,840.585,824.135,850.455,843.875,0.000,0.000,0
1507101313.418,847.165,822.490,850.455,843.875,0.000,0.000,0
1507101313.418,853.745,819.200,847.165,845.520,0.000,0.000,0
1507101313.418,845.520,817.555,850.455,837.295,0.000,0.000,0
1507101313.418,845.520,824.135,850.455,847.165,0.000,0.000,0
1507101313.418,847.165,822.490,850.455,853.745,0.000,0.000,0
1507101313.418,843.875,822.490,848.810,837.295,0.000,0.000,0
1507101313.418,847.165,819.200,845.520,840.585,0.000,0.000,0
1507101313.418,842.230,817.555,848.810,843.875,0.000,0.000,0
1507101313.418,837.295,824.135,848.810,840.585,0.000,0.000,0
1507101313.418,837.295,827.425,848.810,840.585,0.000,0.000,0
1507101313.418,847.165,822.490,847.165,842.230,0.000,0.000,0
1507101313.418,845.520,822.490,845.520,840.585,0.000,0.000,0
1507101313.418,847.165,824.135,847.165,852.100,0.000,0.000,0
1507101313.418,845.520,822.490,848.810,852.100,0.000,0.000,0
1507101313.418,838.940,822.490,847.165,842.230,0.000,0.000,0
1507101313.418,837.295,817.555,845.520,835.650,0.000,0.000,0
1507101313.486,842.230,817.555,847.165,845.520,0.000,0.000,0
1507101313.486,847.165,819.200,848.810,848.810,0.000,0.000,0
1507101313.486,843.875,815.910,848.810,840.585,0.000,0.000,0
1507101313.486,848.810,817.555,845.520,845.520,0.000,0.000,0
1507101313.486,850.455,824.135,847.165,840.585,0.000,0.000,0
1507101313.486,847.165,820.845,848.810,842.230,0.000,0.000,0
1507101313.486,848.810,822.490,847.165,847.165,0.000,0.000,0
1507101313.486,840.585,820.845,850.455,830.715,0.000,0.000,0
1507101313.486,843.875,819.200,845.520,838.940,0.000,0.000,0
1507101313.486,843.875,824.135,848.810,840.585,0.000,0.000,0
1507101313.486,847.165,825.780,852.100,838.940,0.000,0.000,0
1507101313.486,850.455,822.490,848.810,847.165,0.000,0.000,0
1507101313.486,845.520,819.200,845.520,837.295,0.000,0.000,0
1507101313.486,845.520,819.200,845.520,845.520,0.000,0.000,0
1507101313.486,843.875,825.780,847.165,840.585,0.000,0.000,0
1507101313.486,848.810,820.845,847.165,837.295,0.000,0.000,0
1507101313.567,853.745,819.200,848.810,847.165,0.000,0.000,0
1507101313.567,852.100,822.490,847.165,843.875,0.000,0.000,0
1507101313.567,837.295,824.135,850.455,840.585,0.000,0.000,0
1507101313.567,845.520,827.425,848.810,842.230,0.000,0.000,0
1507101313.567,848.810,825.780,847.165,842.230,0.000,0.000,0
1507101313.567,850.455,817.555,843.875,848.810,0.000,0.000,0
1507101313.567,842.230,817.555,847.165,847.165,0.000,0.000,0
1507101313.567,843.875,829.070,850.455,845.520,0.000,0.000,0
1507101313.567,848.810,827.425,850.455,843.875,0.000,0.000,0
1507101313.567,850.455,825.780,845.520,838.940,0.000,0.000,0
1507101313.567,852.100,822.490,848.810,843.875,0.000,0.000,0
1507101313.567,847.165,824.135,850.455,847.165,0.000,0.000,0
1507101313.567,843.875,827.425,852.100,840.585,0.000,0.000,0
1507101313.567,852.100,827.425,852.100,850.455,0.000,0.000,0
1507101313.567,850.455,825.780,850.455,848.810,0.000,0.000,0
1507101313.567,838.940,824.135,853.745,845.520,0.000,0.000,0
1507101313.634,845.520,824.135,850.455,845.520,0.000,0.000,0
1507101313.634,845.520,822.490,848.810,843.875,0.000,0.000,0
1507101313.635,847.165,825.780,848.810,840.585,0.000,0.000,0
1507101313.635,857.035,822.490,848.810,850.455,0.000,0.000,0
1507101313.635,858.680,820.845,853.745,858.680,0.000,0.000,0
1507101313.635,853.745,822.490,850.455,847.165,0.000,0.000,0
1507101313.635,848.810,817.555,847.165,843.875,0.000,0.000,0
1507101313.635,842.230,817.555,848.810,845.520,0.000,0.000,0
1507101313.635,834.005,822.490,852.100,840.585,0.000,0.000,0
1507101313.635,843.875,819.200,852.100,850.455,0.000,0.000,0
1507101313.635,843.875,815.910,850.455,843.875,0.000,0.000,0
1507101313.635,843.875,819.200,847.165,838.940,0.000,0.000,0
1507101313.635,847.165,819.200,847.165,850.455,0.000,0.000,0
1507101313.635,845.520,824.135,850.455,850.455,0.000,0.000,0
1507101313.635,850.455,825.780,852.100,852.100,0.000,0.000,0
1507101313.635,855.390,822.490,847.165,850.455,0.000,0.000,0
1507101313.701,855.390,820.845,847.165,850.455,0.000,0.000,0
1507101313.701,848.810,829.070,848.810,842.230,0.000,0.000,0
1507101313.701,848.810,824.135,848.810,837.295,0.000,0.000,0
1507101313.701,853.745,817.555,848.810,842.230,0.000,0.000,0
1507101313.701,847.165,820.845,850.455,834.005,0.000,0.000,0
1507101313.701,852.100,822.490,850.455,847.165,0.000,0.000,0
1507101313.701,845.520,827.425,852.100,850.455,0.000,0.000,0
1507101313.701,843.875,825.780,850.455,845.520,0.000,0.000,0
1507101313.701,847.165,819.200,848.810,843.875,0.000,0.000,0
1507101313.701,847.165,822.490,850.455,848.810,0.000,0.000,0
1507101313.701,845.520,820.845,853.745,860.325,0.000,0.000,0
1507101313.701,842.230,820.845,848.810,843.875,0.000,0.000,0
1507101313.701,852.100,817.555,848.810,850.455,0.000,0.000,0
1507101313.701,840.585,815.910,850.455,834.005,0.000,0.000,0
1507101313.701,845.520,825.780,848.810,842.230,0.000,0.000,0
1507101313.701,847.165,822.490,850.455,848.810,0.000,0.000,0
1507101313.701,842.230,820.845,848.810,840.585,0.000,0.000,0
1507101313.783,848.810,822.490,847.165,834.005,0.000,0.000,0
1507101313.783,843.875,819.200,848.810,835.650,0.000,0.000,0
1507101313.783,842.230,824.135,850.455,838.940,0.000,0.000,0
1507101313.783,843.875,820.845,847.165,840.585,0.000,0.000,0
1507101313.783,843.875,822.490,848.810,838.940,0.000,0.000,0
1507101313.783,845.520,822.490,850.455,838.940,0.000,0.000,0
1507101313.783,838.940,820.845,850.455,840.585,0.000,0.000,0
1507101313.783,845.520,824.135,852.100,837.295,0.000,0.000,0
1507101313.783,852.100,820.845,850.455,850.455,0.000,0.000,0
1507101313.783,847.165,819.200,847.165,842.230,0.000,0.000,0
1507101313.783,848.810,822.490,848.810,850.455,0.000,0.000,0
1507101313.783,838.940,819.200,850.455,845.520,0.000,0.000,0
1507101313.783,843.875,819.200,847.165,847.165,0.000,0.000,0
1507101313.783,852.100,817.555,847.165,847.165,0.000,0.000,0
1507101313.783,845.520,819.200,845.520,840.585,0.000,0.000,0
1507101313.783,848.810,820.845,847.165,848.810,0.000,0.000,0
1507101313.852,843.875,820.845,848.810,847.165,0.000,0.000,0
1507101313.852,845.520,822.490,847.165,843.875,0.000,0.000,0
1507101313.852,853.745,817.555,842.230,852.100,0.000,0.000,0
1507101313.852,838.940,820.845,845.520,838.940,0.000,0.000,0
1507101313.852,845.520,820.845,847.165,840.585,0.000,0.000,0
1507101313.852,847.165,817.555,847.165,843.875,0.000,0.000,0
1507101313.852,850.455,817.555,847.165,843.875,0.000,0.000,0
1507101313.852,848.810,820.845,850.455,845.520,0.000,0.000,0
1507101313.852,848.810,822.490,853.745,852.100,0.000,0.000,0
1507101313.852,848.810,824.135,853.745,840.585,0.000,0.000,0
1507101313.852,853.745,822.490,852.100,847.165,0.000,0.000,0
1507101313.852,847.165,814.265,847.165,848.810,0.000,0.000,0
1507101313.852,842.230,820.845,852.100,843.875,0.000,0.000,0
1507101313.852,840.585,822.490,852.100,842.230,0.000,0.000,0
1507101313.852,852.100,822.490,848.810,843.875,0.000,0.000,0
1507101313.852,853.745,822.490,850.455,842.230,0.000,0.000,0
1507101313.933,847.165,819.200,852.100,838.940,0.000,0.000,0
1507101313.933,853.745,825.780,850.455,842.230,0.000,0.000,0
1507101313.933,848.810,824.135,852.100,842.230,0.000,0.000,0
1507101313.933,852.100,824.135,847.165,843.875,0.000,0.000,0
1507101313.933,855.390,819.200,845.520,858.680,0.000,0.000,0
1507101313.933,838.940,819.200,850.455,850.455,0.000,0.000,0
1507101313.933,845.520,820.845,850.455,845.520,0.000,0.000,0
1507101313.933,853.745,815.910,847.165,853.745,0.000,0.000,0
1507101313.933,847.165,814.265,847.165,853.745,0.000,0.000,0
1507101313.933,852.100,819.200,850.455,857.035,0.000,0.000,0
1507101313.933,847.165,825.780,852.100,857.035,0.000,0.000,0
1507101313.933,845.520,824.135,853.745,855.390,0.000,0.000,0
1507101313.933,853.745,819.200,848.810,852.100,0.000,0.000,0
1507101313.933,845.520,819.200,847.165,840.585,0.000,0.000,0
1507101313.933,838.940,825.780,853.745,837.295,0.000,0.000,0
1507101313.933,845.520,824.135,848.810,838.940,0.000,0.000,0
1507101314.001,845.520,822.490,850.455,840.585,0.000,0.000,0
1507101314.001,852.100,817.555,845.520,847.165,0.000,0.000,0
1507101314.001,850.455,817.555,848.810,850.455,0.000,0.000,0
1507101314.001,845.520,827.425,850.455,843.875,0.000,0.000,0
1507101314.001,853.745,822.490,848.810,852.100,0.000,0.000,0
1507101314.001,850.455,815.910,847.165,845.520,0.000,0.000,0
1507101314.001,855.390,815.910,848.810,850.455,0.000,0.000,0
1507101314.001,848.810,819.200,850.455,853.745,0.000,0.000,0
1507101314.001,847.165,820.845,852.100,842.230,0.000,0.000,0
1507101314.001,852.100,820.845,848.810,852.100,0.000,0.000,0
1507101314.001,840.585,820.845,850.455,838.940,0.000,0.000,0
1507101314.001,842.230,820.845,855.390,850.455,0.000,0.000,0
1507101314.001,834.005,822.490,855.390,848.810,0.000,0.000,0
1507101314.001,840.585,820.845,855.390,840.585,0.000,0.000,0
1507101314.001,847.165,819.200,852.100,845.520,0.000,0.000,0
1507101314.001,840.585,824.135,853.745,842.230,0.000,0.000,0
1507101314.067,850.455,822.490,853.745,853.745,0.000,0.000,0
1507101314.067,853.745,819.200,853.745,850.455,0.000,0.000,0
1507101314.067,843.875,817.555,852.100,845.520,0.000,0.000,0
1507101314.067,837.295,815.910,848.810,843.875,0.000,0.000,0
1507101314.067,832.360,817.555,850.455,838.940,0.000,0.000,0
1507101314.067,837.295,815.910,848.810,843.875,0.000,0.000,0
1507101314.067,843.875,819.200,847.165,842.230,0.000,0.000,0
1507101314.067,843.875,824.135,848.810,835.650,0.000,0.000,0
1507101314.067,842.230,825.780,848.810,842.230,0.000,0.000,0
1507101314.067,837.295,829.070,850.455,837.295,0.000,0.000,0
1507101314.067,843.875,820.845,848.810,847.165,0.000,0.000,0
1507101314.067,847.165,815.910,847.165,848.810,0.000,0.000,0
1507101314.067,843.875,820.845,845.520,845.520,0.000,0.000,0
1507101314.067,840.585,820.845,845.520,842.230,0.000,0.000,0
1507101314.067,842.230,819.200,843.875,835.650,0.000,0.000,0
1507101314.067,837.295,817.555,843.875,834.005,0.000,0.000,0
1507101314.149,838.940,817.555,842.230,834.005,0.000,0.000,0
1507101314.150,842.230,819.200,847.165,837.295,0.000,0.000,0
1507101314.150,838.940,820.845,847.165,838.940,0.000,0.000,0
1507101314.150,840.585,824.135,845.520,837.295,0.000,0.000,0
1507101314.150,842.230,815.910,845.520,842.230,0.000,0.000,0
1507101314.150,835.650,817.555,848.810,830.715,0.000,0.000,0
1507101314.150,835.650,819.200,847.165,832.360,0.000,0.000,0
1507101314.150,832.360,810.975,847.165,832.360,0.000,0.000,0
1507101314.150,843.875,814.265,847.165,830.715,0.000,0.000,0
1507101314.150,842.230,815.910,845.520,835.650,0.000,0.000,0
1507101314.150,842.230,819.200,853.745,845.520,0.000,0.000,0
1507101314.150,842.230,820.845,852.100,837.295,0.000,0.000,0
1507101314.150,843.875,819.200,850.455,838.940,0.000,0.000,0
1507101314.150,850.455,814.265,847.165,843.875,0.000,0.000,0
1507101314.150,845.520,819.200,847.165,842.230,0.000,0.000,0
1507101314.150,848.810,822.490,848.810,840.585,0.000,0.000,0
1507101314.216,852.100,820.845,848.810,845.520,0.000,0.000,0
1507101314.216,852.100,824.135,847.165,838.940,0.000,0.000,0
1507101314.216,850.455,824.135,848.810,843.875,0.000,0.000,0
1507101314.216,834.005,822.490,848.810,837.295,0.000,0.000,0
1507101314.216,838.940,817.555,845.520,834.005,0.000,0.000,0
1507101314.216,835.650,814.265,845.520,827.425,0.000,0.000,0
1507101314.216,845.520,819.200,842.230,838.940,0.000,0.000,0
1507101314.216,838.940,825.780,847.165,835.650,0.000,0.000,0
1507101314.216,835.650,827.425,850.455,829.070,0.000,0.000,0
1507101314.216,845.520,825.780,845.520,835.650,0.000,0.000,0
1507101314.216,848.810,820.845,845.520,837.295,0.000,0.000,0
1507101314.216,842.230,820.845,848.810,850.455,0.000,0.000,0
1507101314.216,840.585,827.425,850.455,845.520,0.000,0.000,0
1507101314.216,843.875,820.845,848.810,843.875,0.000,0.000,0
1507101314.216,845.520,822.490,848.810,843.875,0.000,0.000,0
1507101314.216,852.100,819.200,845.520,848.810,0.000,0.000,0
1507101314.300,845.520,819.200,848.810,850.455,0.000,0.000,0
1507101314.300,843.875,819.200,848.810,848.810,0.000,0.000,0
1507101314.300,848.810,824.135,847.165,843.875,0.000,0.000,0
1507101314.300,845.520,822.490,843.875,847.165,0.000,0.000,0
1507101314.300,845.520,822.490,848.810,852.100,0.000,0.000,0
1507101314.300,840.585,817.555,848.810,857.035,0.000,0.000,0
1507101314.300,842.230,815.910,848.810,845.520,0.000,0.000,0
1507101314.300,848.810,815.910,843.875,843.875,0.000,0.000,0
1507101314.300,845.520,815.910,843.875,845.520,0.000,0.000,0
1507101314.300,843.875,820.845,848.810,838.940,0.000,0.000,0
1507101314.300,847.165,820.845,845.520,848.810,0.000,0.000,0
1507101314.300,842.230,819.200,845.520,845.520,0.000,0.000,0
1507101314.300,842.230,819.200,843.875,835.650,0.000,0.000,0
1507101314.300,838.940,820.845,848.810,840.585,0.000,0.000,0
1507101314.300,837.295,819.200,850.455,835.650,0.000,0.000,0
1507101314.300,840.585,820.845,848.810,835.650,0.000,0.000,0
1507101314.300,848.810,815.910,845.520,845.520,0.000,0.000,0
1507101314.366,843.875,815.910,848.810,838.940,0.000,0.000,0
1507101314.366,842.230,819.200,850.455,840.585,0.000,0.000,0
1507101314.366,842.230,819.200,847.165,837.295,0.000,0.000,0
1507101314.366,843.875,812.620,845.520,832.360,0.000,0.000,0
1507101314.366,848.810,810.975,842.230,840.585,0.000,0.000,0
1507101314.366,843.875,819.200,847.165,840.585,0.000,0.000,0
1507101314.366,852.100,817.555,845.520,848.810,0.000,0.000,0
1507101314.366,850.455,820.845,845.520,848.810,0.000,0.000,0
1507101314.366,853.745,820.845,845.520,845.520,0.000,0.000,0
1507101314.366,847.165,819.200,845.520,848.810,0.000,0.000,0
1507101314.366,845.520,824.135,850.455,842.230,0.000,0.000,0
1507101314.366,855.390,824.135,847.165,852.100,0.000,0.000,0
1507101314.366,857.035,820.845,845.520,850.455,0.000,0.000,0
1507101314.366,850.455,819.200,848.810,845.520,0.000,0.000,0
1507101314.366,848.810,820.845,852.100,853.745,0.000,0.000,0
1507101314.366,847.165,819.200,852.100,850.455,0.000,0.000,0
1507101314.448,850.455,819.200,850.455,850.455,0.000,0.000,0
1507101314.448,850.455,820.845,845.520,842.230,0.000,0.000,0
1507101314.448,843.875,820.845,847.165,837.295,0.000,0.000,0
1507101314.448,842.230,820.845,850.455,843.875,0.000,0.000,0
1507101314.448,845.520,819.200,847.165,843.875,0.000,0.000,0
1507101314.448,850.455,815.910,842.230,847.165,0.000,0.000,0
1507101314.448,842.230,824.135,845.520,837.295,0.000,0.000,0
1507101314.448,847.165,824.135,850.455,845.520,0.000,0.000,0
1507101314.448,848.810,817.555,848.810,848.810,0.000,0.000,0
1507101314.448,850.455,817.555,845.520,850.455,0.000,0.000,0
1507101314.448,855.390,815.910,843.875,853.745,0.000,0.000,0
1507101314.448,847.165,822.490,847.165,850.455,0.000,0.000,0
1507101314.448,848.810,824.135,848.810,845.520,0.000,0.000,0
1507101314.448,853.745,822.490,845.520,850.455,0.000,0.000,0
1507101314.448,857.035,819.200,845.520,848.810,0.000,0.000,0
1507101314.448,853.745,820.845,848.810,853.745,0.000,0.000,0
1507101314.515,848.810,825.780,852.100,852.100,0.000,0.000,0
1507101314.515,853.745,819.200,848.810,848.810,0.000,0.000,0
1507101314.515,852.100,812.620,845.520,847.165,0.000,0.000,0
1507101314.515,857.035,814.265,843.875,847.165,0.000,0.000,0
1507101314.515,850.455,817.555,848.810,852.100,0.000,0.000,0
1507101314.515,852.100,822.490,848.810,855.390,0.000,0.000,0
1507101314.515,853.745,824.135,843.875,850.455,0.000,0.000,0
1507101314.515,852.100,819.200,842.230,855.390,0.000,0.000,0
1507101314.515,842.230,820.845,845.520,853.745,0.000,0.000,0
1507101314.515,847.165,827.425,848.810,847.165,0.000,0.000,0
1507101314.515,850.455,819.200,848.810,853.745,0.000,0.000,0
1507101314.515,848.810,815.910,847.165,837.295,0.000,0.000,0
1507101314.515,852.100,819.200,847.165,842.230,0.000,0.000,0
1507101314.515,842.230,819.200,850.455,840.585,0.000,0.000,0
1507101314.515,850.455,824.135,850.455,845.520,0.000,0.000,0
1507101314.515,853.745,820.845,847.165,850.455,0.000,0.000,0
1507101314.583,845.520,819.200,845.520,840.585,0.000,0.000,0
1507101314.583,847.165,820.845,845.520,848.810,0.000,0.000,0
1507101314.583,843.875,825.780,850.455,848.810,0.000,0.000,0
1507101314.583,857.035,825.780,850.455,850.455,0.000,0.000,0
1507101314.583,852.100,819.200,845.520,845.520,0.000,0.000,0
1507101314.583,850.455,822.490,848.810,842.230,0.000,0.000,0
1507101314.583,850.455,819.200,850.455,852.100,0.000,0.000,0
1507101314.583,845.520,814.265,850.455,845.520,0.000,0.000,0
1507101314.583,843.875,817.555,847.165,845.520,0.000,0.000,0
1507101314.583,838.940,820.845,843.875,834.005,0.000,0.000,0
1507101314.583,835.650,822.490,845.520,832.360,0.000,0.000,0
1507101314.583,845.520,822.490,847.165,838.940,0.000,0.000,0
1507101314.583,850.455,817.555,845.520,842.230,0.000,0.000,0
1507101314.583,848.810,812.620,843.875,842.230,0.000,0.000,0
1507101314.583,845.520,819.200,845.520,842.230,0.000,0.000,0
1507101314.583,835.650,819.200,845.520,840.585,0.000,0.000,0
1507101314.665,834.005,817.555,845.520,840.585,0.000,0.000,0
1507101314.665,829.070,819.200,845.520,835.650,0.000,0.000,0
1507101314.665,838.940,814.265,845.520,843.875,0.000,0.000,0
1507101314.665,835.650,812.620,850.455,845.520,0.000,0.000,0
1507101314.665,843.875,819.200,848.810,848.810,0.000,0.000,0
1507101314.665,843.875,814.265,847.165,852.100,0.000,0.000,0
1507101314.665,837.295,817.555,847.165,838.940,0.000,0.000,0
1507101314.665,845.520,822.490,847.165,850.455,0.000,0.000,0
1507101314.665,838.940,820.845,850.455,843.875,0.000,0.000,0
1507101314.665,847.165,824.135,848.810,852.100,0.000,0.000,0
1507101314.665,852.100,820.845,847.165,857.035,0.000,0.000,0
1507101314.665,848.810,817.555,850.455,848.810,0.000,0.000,0
1507101314.665,847.165,819.200,852.100,850.455,0.000,0.000,0
1507101314.665,850.455,817.555,852.100,852.100,0.000,0.000,0
1507101314.665,845.520,815.910,848.810,850.455,0.000,0.000,0
1507101314.665,847.165,812.620,847.165,847.165,0.000,0.000,0
1507101314.731,843.875,815.910,848.810,850.455,0.000,0.000,0
1507101314.731,847.165,817.555,852.100,853.745,0.000,0.000,0
1507101314.731,847.165,817.555,852.100,850.455,0.000,0.000,0
1507101314.731,845.520,819.200,850.455,852.100,0.000,0.000,0
1507101314.731,840.585,820.845,850.455,847.165,0.000,0.000,0
1507101314.731,837.295,824.135,853.745,850.455,0.000,0.000,0
1507101314.731,840.585,824.135,853.745,852.100,0.000,0.000,0
1507101314.731,847.165,822.490,850.455,855.390,0.000,0.000,0
1507101314.731,838.940,817.555,850.455,840.585,0.000,0.000,0
1507101314.731,848.810,817.555,850.455,852.100,0.000,0.000,0
1507101314.731,843.875,817.555,852.100,848.810,0.000,0.000,0
1507101314.731,845.520,819.200,850.455,842.230,0.000,0.000,0
1507101314.731,852.100,822.490,848.810,843.875,0.000,0.000,0
1507101314.731,842.230,827.425,848.810,837.295,0.000,0.000,0
1507101314.731,848.810,824.135,850.455,848.810,0.000,0.000,0
1507101314.731,855.390,820.845,847.165,855.390,0.000,0.000,0
1507101314.797,847.165,822.490,845.520,845.520,0.000,0.000,0
1507101314.797,855.390,820.845,847.165,842.230,0.000,0.000,0
1507101314.797,838.940,822.490,850.455,840.585,0.000,0.000,0
1507101314.797,842.230,822.490,845.520,843.875,0.000,0.000,0
1507101314.797,848.810,820.845,845.520,845.520,0.000,0.000,0
1507101314.797,852.100,822.490,843.875,845.520,0.000,0.000,0
1507101314.797,850.455,822.490,847.165,847.165,0.000,0.000,0
1507101314.797,842.230,824.135,847.165,840.585,0.000,0.000,0
1507101314.797,847.165,820.845,843.875,847.165,0.000,0.000,0
1507101314.797,843.875,819.200,843.875,838.940,0.000,0.000,0
1507101314.797,847.165,815.910,847.165,840.585,0.000,0.000,0
1507101314.797,843.875,819.200,848.810,847.165,0.000,0.000,0
1507101314.797,838.940,819.200,847.165,842.230,0.000,0.000,0
1507101314.797,840.585,819.200,842.230,837.295,0.000,0.000,0
1507101314.797,842.230,820.845,838.940,835.650,0.000,0.000,0
1507101314.797,834.005,822.490,845.520,834.005,0.000,0.000,0
1507101314.881,840.585,819.200,847.165,837.295,0.000,0.000,0
1507101314.881,843.875,817.555,848.810,838.940,0.000,0.000,0
1507101314.881,848.810,822.490,843.875,843.875,0.000,0.000,0
1507101314.881,842.230,822.490,847.165,840.585,0.000,0.000,0
1507101314.881,850.455,822.490,852.100,858.680,0.000,0.000,0
1507101314.881,847.165,822.490,852.100,848.810,0.000,0.000,0
1507101314.881,853.745,814.265,848.810,852.100,0.000,0.000,0
1507101314.881,857.035,820.845,847.165,857.035,0.000,0.000,0
1507101314.881,845.520,824.135,850.455,843.875,0.000,0.000,0
1507101314.881,855.390,822.490,850.455,853.745,0.000,0.000,0
1507101314.881,852.100,820.845,850.455,848.810,0.000,0.000,0
1507101314.881,852.100,817.555,845.520,852.100,0.000,0.000,0
1507101314.881,845.520,820.845,847.165,848.810,0.000,0.000,0
1507101314.881,842.230,824.135,848.810,847.165,0.000,0.000,0
1507101314.881,847.165,822.490,847.165,845.520,0.000,0.000,0
1507101314.881,847.165,824.135,847.165,840.585,0.000,0.000,0
1507101314.881,847.165,815.910,848.810,845.520,0.000,0.000,0
1507101314.947,843.875,817.555,850.455,852.100,0.000,0.000,0
1507101314.947,840.585,824.135,850.455,843.875,0.000,0.000,0
1507101314.947,842.230,820.845,848.810,843.875,0.000,0.000,0
1507101314.947,834.005,822.490,845.520,835.650,0.000,0.000,0
1507101314.947,837.295,822.490,847.165,840.585,0.000,0.000,0
1507101314.947,840.585,822.490,850.455,843.875,0.000,0.000,0
1507101314.947,845.520,820.845,845.520,848.810,0.000,0.000,0
1507101314.947,847.165,814.265,845.520,838.940,0.000,0.000,0
1507101314.947,848.810,817.555,845.520,848.810,0.000,0.000,0
1507101314.947,838.940,820.845,848.810,843.875,0.000,0.000,0
1507101314.947,850.455,824.135,850.455,850.455,0.000,0.000,0
1507101314.947,847.165,824.135,847.165,848.810,0.000,0.000,0
1507101314.947,848.810,817.555,843.875,840.585,0.000,0.000,0
1507101314.947,838.940,817.555,843.875,838.940,0.000,0.000,0
1507101314.947,838.940,820.845,843.875,840.585,0.000,0.000,0
1507101314.947,840.585,820.845,843.875,840.585,0.000,0.000,0
1507101315.030,842.230,822.490,840.585,835.650,0.000,0.000,0
1507101315.030,837.295,822.490,843.875,838.940,0.000,0.000,0
1507101315.030,840.585,819.200,847.165,845.520,0.000,0.000,0
1507101315.030,847.165,824.135,845.520,840.585,0.000,0.000,0
1507101315.030,852.100,819.200,843.875,845.520,0.000,0.000,0
1507101315.030,847.165,822.490,843.875,840.585,0.000,0.000,0
1507101315.030,835.650,825.780,847.165,837.295,0.000,0.000,0
1507101315.030,842.230,822.490,848.810,845.520,0.000,0.000,0
1507101315.030,845.520,822.490,847.165,838.940,0.000,0.000,0
1507101315.030,848.810,820.845,842.230,845.520,0.000,0.000,0
1507101315.030,842.230,827.425,845.520,850.455,0.000,0.000,0
1507101315.030,843.875,822.490,848.810,853.745,0.000,0.000,0
1507101315.030,843.875,819.200,845.520,845.520,0.000,0.000,0
1507101315.030,852.100,819.200,847.165,842.230,0.000,0.000,0
1507101315.030,848.810,820.845,850.455,840.585,0.000,0.000,0
1507101315.030,852.100,824.135,848.810,850.455,0.000,0.000,0
1507101315.097,853.745,824.135,850.455,855.390,0.000,0.000,0
1507101315.097,840.585,822.490,850.455,843.875,0.000,0.000,0
1507101315.097,847.165,819.200,847.165,848.810,0.000,0.000,0
1507101315.097,835.650,825.780,850.455,845.520,0.000,0.000,0
1507101315.097,838.940,825.780,850.455,847.165,0.000,0.000,0
1507101315.097,842.230,820.845,845.520,842.230,0.000,0.000,0
1507101315.097,843.875,817.555,845.520,845.520,0.000,0.000,0
1507101315.097,842.230,822.490,848.810,845.520,0.000,0.000,0
1507101315.097,840.585,827.425,850.455,843.875,0.000,0.000,0
1507101315.097,848.810,824.135,848.810,852.100,0.000,0.000,0
1507101315.097,842.230,825.780,848.810,834.005,0.000,0.000,0
1507101315.097,847.165,820.845,847.165,835.650,0.000,0.000,0
1507101315.097,845.520,820.845,852.100,843.875,0.000,0.000,0
1507101315.097,842.230,820.845,852.100,838.940,0.000,0.000,0
1507101315.097,838.940,820.845,852.100,843.875,0.000,0.000,0
1507101315.097,843.875,819.200,848.810,840.585,0.000,0.000,0
1507101315.167,838.940,817.555,848.810,843.875,0.000,0.000,0
1507101315.167,838.940,820.845,852.100,843.875,0.000,0.000,0
1507101315.167,848.810,819.200,850.455,848.810,0.000,0.000,0
1507101315.167,848.810,817.555,847.165,850.455,0.000,0.000,0
1507101315.167,838.940,820.845,847.165,840.585,0.000,0.000,0
1507101315.167,843.875,822.490,847.165,850.455,0.000,0.000,0
1507101315.167,837.295,822.490,848.810,843.875,0.000,0.000,0
1507101315.167,843.875,825.780,848.810,837.295,0.000,0.000,0
1507101315.167,848.810,820.845,845.520,843.875,0.000,0.000,0
1507101315.167,834.005,819.200,850.455,837.295,0.000,0.000,0
1507101315.167,843.875,822.490,848.810,843.875,0.000,0.000,0
1507101315.167,845.520,820.845,850.455,840.585,0.000,0.000,0
1507101315.167,840.585,819.200,850.455,835.650,0.000,0.000,0
1507101315.167,842.230,820.845,848.810,837.295,0.000,0.000,0
1507101315.167,840.585,819.200,850.455,843.875,0.000,0.000,0
1507101315.167,842.230,819.200,845.520,843.875,0.000,0.000,0
1507101315.246,857.035,817.555,843.875,857.035,0.000,0.000,0
1507101315.246,848.810,817.555,845.520,852.100,0.000,0.000,0
1507101315.246,838.940,817.555,847.165,853.745,0.000,0.000,0
1507101315.246,843.875,817.555,850.455,853.745,0.000,0.000,0
1507101315.246,848.810,822.490,845.520,853.745,0.000,0.000,0
1507101315.246,850.455,819.200,847.165,850.455,0.000,0.000,0
1507101315.246,847.165,824.135,852.100,843.875,0.000,0.000,0
1507101315.246,847.165,824.135,853.745,848.810,0.000,0.000,0
1507101315.246,850.455,824.135,852.100,847.165,0.000,0.000,0
1507101315.246,858.680,820.845,850.455,850.455,0.000,0.000,0
1507101315.246,850.455,820.845,848.810,843.875,0.000,0.000,0
1507101315.246,848.810,819.200,848.810,847.165,0.000,0.000,0
1507101315.246,842.230,817.555,850.455,842.230,0.000,0.000,0
1507101315.246,850.455,817.555,847.165,843.875,0.000,0.000,0
1507101315.246,855.390,817.555,847.165,848.810,0.000,0.000,0
1507101315.246,848.810,820.845,852.100,842.230,0.000,0.000,0
1507101315.313,855.390,824.135,850.455,853.745,0.000,0.000,0
1507101315.313,852.100,822.490,850.455,848.810,0.000,0.000,0
1507101315.313,855.390,820.845,848.810,850.455,0.000,0.000,0
1507101315.313,850.455,817.555,852.100,848.810,0.000,0.000,0
1507101315.313,852.100,824.135,852.100,850.455,0.000,0.000,0
1507101315.313,857.035,822.490,850.455,850.455,0.000,0.000,0
1507101315.313,857.035,819.200,847.165,850.455,0.000,0.000,0
1507101315.313,857.035,819.200,847.165,847.165,0.000,0.000,0
1507101315.313,847.165,815.910,850.455,843.875,0.000,0.000,0
1507101315.313,850.455,819.200,850.455,847.165,0.000,0.000,0
1507101315.313,848.810,820.845,848.810,835.650,0.000,0.000,0
1507101315.313,852.100,817.555,847.165,845.520,0.000,0.000,0
1507101315.313,845.520,820.845,847.165,845.520,0.000,0.000,0
1507101315.313,845.520,824.135,850.455,842.230,0.000,0.000,0
1507101315.313,848.810,825.780,848.810,842.230,0.000,0.000,0
1507101315.313,852.100,820.845,845.520,843.875,0.000,0.000,0
1507101315.396,850.455,820.845,845.520,840.585,0.000,0.000,0
1507101315.396,843.875,820.845,847.165,840.585,0.000,0.000,0
1507101315.396,838.940,820.845,845.520,835.650,0.000,0.000,0
1507101315.396,843.875,822.490,843.875,835.650,0.000,0.000,0
1507101315.396,840.585,815.910,843.875,827.425,0.000,0.000,0
1507101315.396,847.165,815.910,845.520,838.940,0.000,0.000,0
1507101315.396,843.875,819.200,847.165,835.650,0.000,0.000,0
1507101315.396,848.810,824.135,845.520,834.005,0.000,0.000,0
1507101315.396,850.455,825.780,842.230,837.295,0.000,0.000,0
1507101315.396,850.455,825.780,843.875,832.360,0.000,0.000,0
1507101315.396,853.745,827.425,845.520,845.520,0.000,0.000,0
1507101315.396,852.100,825.780,847.165,843.875,0.000,0.000,0
1507101315.396,853.745,822.490,843.875,843.875,0.000,0.000,0
1507101315.396,857.035,824.135,843.875,845.520,0.000,0.000,0
1507101315.396,852.100,825.780,847.165,843.875,0.000,0.000,0
1507101315.396,852.100,819.200,847.165,848.810,0.000,0.000,0
1507101315.463,847.165,819.200,843.875,840.585,0.000,0.000,0
1507101315.463,845.520,819.200,842.230,842.230,0.000,0.000,0
1507101315.463,845.520,817.555,842.230,842.230,0.000,0.000,0
1507101315.463,842.230,820.845,843.875,838.940,0.000,0.000,0
1507101315.463,843.875,824.135,843.875,837.295,0.000,0.000,0
1507101315.463,843.875,815.910,840.585,834.005,0.000,0.000,0
1507101315.463,847.165,819.200,842.230,830.715,0.000,0.000,0
1507101315.463,843.875,820.845,842.230,842.230,0.000,0.000,0
1507101315.463,835.650,822.490,843.875,837.295,0.000,0.000,0
1507101315.463,834.005,820.845,847.165,832.360,0.000,0.000,0
1507101315.463,840.585,817.555,843.875,837.295,0.000,0.000,0
1507101315.463,847.165,820.845,845.520,842.230,0.000,0.000,0
1507101315.463,848.810,819.200,847.165,845.520,0.000,0.000,0
1507101315.463,842.230,820.845,843.875,838.940,0.000,0.000,0
1507101315.463,848.810,817.555,843.875,840.585,0.000,0.000,0
1507101315.463,842.230,814.265,843.875,832.360,0.000,0.000,0
1507101315.463,840.585,820.845,847.165,835.650,0.000,0.000,0
1507101315.547,847.165,819.200,847.165,834.005,0.000,0.000,0
1507101315.547,853.745,822.490,845.520,835.650,0.000,0.000,0
1507101315.547,855.390,819.200,845.520,834.005,0.000,0.000,0
1507101315.547,855.390,817.555,848.810,840.585,0.000,0.000,0
1507101315.547,861.970,819.200,850.455,850.455,0.000,0.000,0
1507101315.547,858.680,817.555,848.810,858.680,0.000,0.000,0
1507101315.547,860.325,815.910,847.165,857.035,0.000,0.000,0
1507101315.547,858.680,817.555,847.165,850.455,0.000,0.000,0
1507101315.547,847.165,819.200,850.455,861.970,0.000,0.000,0
1507101315.547,845.520,815.910,850.455,852.100,0.000,0.000,0
1507101315.547,843.875,815.910,847.165,852.100,0.000,0.000,0
1507101315.547,837.295,814.265,845.520,847.165,0.000,0.000,0
1507101315.547,827.425,817.555,848.810,834.005,0.000,0.000,0
1507101315.547,835.650,814.265,850.455,845.520,0.000,0.000,0
1507101315.547,830.715,814.265,848.810,842.230,0.000,0.000,0
1507101315.547,829.070,820.845,848.810,827.425,0.000,0.000,0
1507101315.615,848.810,819.200,847.165,848.810,0.000,0.000,0
1507101315.615,845.520,819.200,852.100,843.875,0.000,0.000,0
1507101315.615,858.680,822.490,848.810,850.455,0.000,0.000,0
1507101315.615,857.035,819.200,842.230,847.165,0.000,0.000,0
1507101315.615,847.165,820.845,845.520,837.295,0.000,0.000,0
1507101315.615,850.455,825.780,847.165,847.165,0.000,0.000,0
1507101315.615,848.810,820.845,848.810,842.230,0.000,0.000,0
1507101315.615,850.455,819.200,847.165,847.165,0.000,0.000,0
1507101315.615,848.810,815.910,843.875,845.520,0.000,0.000,0
1507101315.615,840.585,820.845,847.165,842.230,0.000,0.000,0
1507101315.615,840.585,819.200,850.455,847.165,0.000,0.000,0
1507101315.615,840.585,820.845,847.165,845.520,0.000,0.000,0
1507101315.615,840.585,820.845,848.810,842.230,0.000,0.000,0
1507101315.615,842.230,814.265,847.165,850.455,0.000,0.000,0
1507101315.615,838.940,817.555,852.100,852.100,0.000,0.000,0
1507101315.615,838.940,819.200,852.100,845.520,0.000,0.000,0
1507101315.680,843.875,817.555,848.810,847.165,0.000,0.000,0
1507101315.680,847.165,817.555,847.165,842.230,0.000,0.000,0
1507101315.680,843.875,817.555,850.455,845.520,0.000,0.000,0
1507101315.680,838.940,819.200,850.455,848.810,0.000,0.000,0
1507101315.680,843.875,819.200,848.810,852.100,0.000,0.000,0
1507101315.680,840.585,819.200,845.520,845.520,0.000,0.000,0
1507101315.680,843.875,819.200,845.520,850.455,0.000,0.000,0
1507101315.680,842.230,825.780,848.810,847.165,0.000,0.000,0
1507101315.680,842.230,822.490,848.810,835.650,0.000,0.000,0
1507101315.680,850.455,824.135,847.165,843.875,0.000,0.000,0
1507101315.680,848.810,819.200,845.520,843.875,0.000,0.000,0
1507101315.680,848.810,819.200,850.455,850.455,0.000,0.000,0
1507101315.680,853.745,820.845,852.100,857.035,0.000,0.000,0
1507101315.680,853.745,822.490,852.100,852.100,0.000,0.000,0
1507101315.680,855.390,820.845,848.810,845.520,0.000,0.000,0
1507101315.680,852.100,819.200,852.100,850.455,0.000,0.000,0
1507101315.765,853.745,825.780,853.745,853.745,0.000,0.000,0
1507101315.765,852.100,824.135,852.100,845.520,0.000,0.000,0
1507101315.765,853.745,824.135,852.100,845.520,0.000,0.000,0
1507101315.765,848.810,819.200,852.100,847.165,0.000,0.000,0
1507101315.765,847.165,820.845,855.390,857.035,0.000,0.000,0
1507101315.765,850.455,822.490,855.390,860.325,0.000,0.000,0
1507101315.765,842.230,824.135,853.745,842.230,0.000,0.000,0
1507101315.765,850.455,820.845,850.455,850.455,0.000,0.000,0
1507101315.765,837.295,820.845,852.100,838.940,0.000,0.000,0
1507101315.765,838.940,822.490,853.745,845.520,0.000,0.000,0
1507101315.765,837.295,819.200,852.100,848.810,0.000,0.000,0
1507101315.765,840.585,820.845,850.455,838.940,0.000,0.000,0
1507101315.765,842.230,820.845,848.810,840.585,0.000,0.000,0
1507101315.765,845.520,824.135,850.455,850.455,0.000,0.000,0
1507101315.765,840.585,825.780,848.810,840.585,0.000,0.000,0
1507101315.765,842.230,824.135,848.810,837.295,0.000,0.000,0
1507101315.828,853.745,824.135,845.520,847.165,0.000,0.000,0
1507101315.828,847.165,829.070,847.165,843.875,0.000,0.000,0
1507101315.828,845.520,822.490,848.810,847.165,0.000,0.000,0
1507101315.828,842.230,819.200,850.455,843.875,0.000,0.000,0
1507101315.828,848.810,819.200,847.165,837.295,0.000,0.000,0
1507101315.828,847.165,817.555,847.165,842.230,0.000,0.000,0
1507101315.828,850.455,820.845,848.810,842.230,0.000,0.000,0
1507101315.828,847.165,817.555,847.165,850.455,0.000,0.000,0
1507101315.828,843.875,817.555,845.520,847.165,0.000,0.000,0
1507101315.828,843.875,817.555,845.520,843.875,0.000,0.000,0
1507101315.828,834.005,820.845,848.810,850.455,0.000,0.000,0
1507101315.828,832.360,822.490,850.455,840.585,0.000,0.000,0
1507101315.828,840.585,820.845,847.165,847.165,0.000,0.000,0
1507101315.828,835.650,817.555,843.875,842.230,0.000,0.000,0
1507101315.828,832.360,819.200,847.165,837.295,0.000,0.000,0
1507101315.828,835.650,822.490,848.810,835.650,0.000,0.000,0
1507101315.895,835.650,820.845,848.810,835.650,0.000,0.000,0
1507101315.895,837.295,822.490,847.165,838.940,0.000,0.000,0
1507101315.895,835.650,822.490,847.165,842.230,0.000,0.000,0
1507101315.895,834.005,824.135,852.100,847.165,0.000,0.000,0
1507101315.895,840.585,819.200,852.100,845.520,0.000,0.000,0
1507101315.895,840.585,819.200,848.810,840.585,0.000,0.000,0
1507101315.895,845.520,819.200,847.165,845.520,0.000,0.000,0
1507101315.895,832.360,819.200,852.100,834.005,0.000,0.000,0
1507101315.895,832.360,827.425,850.455,837.295,0.000,0.000,0
1507101315.895,840.585,822.490,850.455,840.585,0.000,0.000,0
1507101315.895,845.520,819.200,845.520,847.165,0.000,0.000,0
1507101315.895,843.875,820.845,850.455,853.745,0.000,0.000,0
1507101315.895,840.585,822.490,853.745,857.035,0.000,0.000,0
1507101315.895,842.230,824.135,852.100,850.455,0.000,0.000,0
1507101315.895,837.295,822.490,852.100,850.455,0.000,0.000,0
1507101315.895,838.940,815.910,848.810,855.390,0.000,0.000,0
1507101315.978,834.005,815.910,855.390,857.035,0.000,0.000,0
1507101315.978,829.070,819.200,853.745,847.165,0.000,0.000,0
1507101315.978,835.650,817.555,848.810,847.165,0.000,0.000,0
1507101315.978,838.940,820.845,848.810,845.520,0.000,0.000,0
1507101315.978,838.940,822.490,848.810,848.810,0.000,0.000,0
1507101315.978,827.425,819.200,852.100,848.810,0.000,0.000,0
1507101315.978,838.940,824.135,850.455,847.165,0.000,0.000,0
1507101315.978,840.585,819.200,847.165,855.390,0.000,0.000,0
1507101315.978,835.650,817.555,847.165,847.165,0.000,0.000,0
1507101315.978,838.940,820.845,850.455,847.165,0.000,0.000,0
1507101315.978,837.295,822.490,847.165,840.585,0.000,0.000,0
1507101315.978,843.875,819.200,845.520,837.295,0.000,0.000,0
1507101315.978,850.455,814.265,842.230,847.165,0.000,0.000,0
1507101315.978,847.165,820.845,843.875,848.810,0.000,0.000,0
1507101315.978,847.165,824.135,848.810,845.520,0.000,0.000,0
1507101315.978,852.100,820.845,847.165,848.810,0.000,0.000,0
1507101316.046,850.455,819.200,850.455,845.520,0.000,0.000,0
1507101316.046,853.745,819.200,848.810,853.745,0.000,0.000,0
1507101316.046,847.165,820.845,850.455,852.100,0.000,0.000,0
1507101316.046,843.875,822.490,850.455,850.455,0.000,0.000,0
1507101316.046,843.875,815.910,847.165,852.100,0.000,0.000,0
1507101316.046,834.005,814.265,847.165,834.005,0.000,0.000,0
1507101316.046,842.230,819.200,848.810,848.810,0.000,0.000,0
1507101316.046,842.230,817.555,850.455,850.455,0.000,0.000,0
1507101316.046,842.230,822.490,848.810,847.165,0.000,0.000,0
1507101316.046,845.520,819.200,845.520,850.455,0.000,0.000,0
1507101316.046,843.875,815.910,847.165,845.520,0.000,0.000,0
1507101316.046,840.585,815.910,847.165,845.520,0.000,0.000,0
1507101316.046,838.940,820.845,847.165,848.810,0.000,0.000,0
1507101316.046,845.520,819.200,845.520,840.585,0.000,0.000,0
1507101316.046,843.875,824.135,843.875,832.360,0.000,0.000,0
1507101316.046,852.100,825.780,845.520,838.940,0.000,0.000,0
1507101316.046,845.520,815.910,848.810,842.230,0.000,0.000,0
1507101316.128,852.100,820.845,845.520,843.875,0.000,0.000,0
1507101316.128,858.680,819.200,843.875,852.100,0.000,0.000,0
1507101316.128,850.455,820.845,847.165,847.165,0.000,0.000,0
1507101316.128,855.390,819.200,850.455,858.680,0.000,0.000,0
1507101316.128,855.390,820.845,850.455,861.970,0.000,0.000,0
1507101316.128,853.745,819.200,847.165,861.970,0.000,0.000,0
1507101316.128,850.455,822.490,847.165,848.810,0.000,0.000,0
1507101316.128,845.520,824.135,850.455,850.455,0.000,0.000,0
1507101316.128,847.165,817.555,852.100,843.875,0.000,0.000,0
1507101316.128,845.520,817.555,848.810,853.745,0.000,0.000,0
1507101316.128,842.230,815.910,847.165,848.810,0.000,0.000,0
1507101316.128,837.295,822.490,852.100,853.745,0.000,0.000,0
1507101316.128,830.715,822.490,855.390,848.810,0.000,0.000,0
1507101316.128,843.875,822.490,850.455,852.100,0.000,0.000,0
1507101316.128,847.165,817.555,850.455,858.680,0.000,0.000,0
1507101316.128,834.005,819.200,850.455,847.165,0.000,0.000,0
1507101316.197,837.295,820.845,853.745,845.520,0.000,0.000,0
1507101316.197,842.230,820.845,852.100,848.810,0.000,0.000,0
1507101316.197,843.875,819.200,847.165,845.520,0.000,0.000,0
1507101316.197,838.940,814.265,845.520,835.650,0.000,0.000,0
1507101316.197,838.940,820.845,847.165,842.230,0.000,0.000,0
1507101316.197,843.875,822.490,845.520,837.295,0.000,0.000,0
1507101316.197,843.875,822.490,843.875,834.005,0.000,0.000,0
1507101316.197,852.100,820.845,840.585,842.230,0.000,0.000,0
1507101316.197,840.585,824.135,845.520,834.005,0.000,0.000,0
1507101316.197,840.585,827.425,850.455,843.875,0.000,0.000,0
1507101316.197,848.810,820.845,850.455,845.520,0.000,0.000,0
1507101316.197,852.100,819.200,847.165,852.100,0.000,0.000,0
1507101316.197,850.455,817.555,847.165,848.810,0.000,0.000,0
1507101316.197,842.230,822.490,847.165,848.810,0.000,0.000,0
1507101316.197,832.360,827.425,845.520,845.520,0.000,0.000,0
1507101316.197,843.875,822.490,847.165,845.520,0.000,0.000,0
1507101316.261,842.230,819.200,842.230,848.810,0.000,0.000,0
1507101316.261,835.650,819.200,845.520,842.230,0.000,0.000,0
1507101316.261,838.940,822.490,852.100,842.230,0.000,0.000,0
1507101316.261,838.940,820.845,852.100,842.230,0.000,0.000,0
1507101316.261,840.585,817.555,850.455,842.230,0.000,0.000,0
1507101316.261,842.230,817.555,848.810,845.520,0.000,0.000,0
1507101316.261,832.360,819.200,850.455,847.165,0.000,0.000,0
1507101316.261,832.360,819.200,850.455,837.295,0.000,0.000,0
1507101316.261,840.585,819.200,848.810,842.230,0.000,0.000,0
1507101316.261,840.585,820.845,845.520,835.650,0.000,0.000,0
1507101316.261,845.520,822.490,847.165,842.230,0.000,0.000,0
1507101316.261,843.875,820.845,848.810,848.810,0.000,0.000,0
1507101316.261,843.875,822.490,847.165,843.875,0.000,0.000,0
1507101316.261,848.810,819.200,848.810,842.230,0.000,0.000,0
1507101316.261,843.875,819.200,848.810,845.520,0.000,0.000,0
1507101316.261,840.585,825.780,850.455,838.940,0.000,0.000,0
1507101316.343,850.455,822.490,850.455,850.455,0.000,0.000,0
1507101316.343,845.520,820.845,847.165,848.810,0.000,0.000,0
1507101316.343,842.230,815.910,845.520,847.165,0.000,0.000,0
1507101316.343,845.520,822.490,850.455,852.100,0.000,0.000,0
1507101316.343,843.875,824.135,848.810,852.100,0.000,0.000,0
1507101316.343,838.940,824.135,847.165,845.520,0.000,0.000,0
1507101316.343,840.585,820.845,845.520,838.940,0.000,0.000,0
1507101316.343,840.585,819.200,847.165,843.875,0.000,0.000,0
1507101316.343,837.295,820.845,848.810,830.715,0.000,0.000,0
1507101316.343,852.100,815.910,847.165,840.585,0.000,0.000,0
1507101316.343,842.230,819.200,845.520,840.585,0.000,0.000,0
1507101316.343,845.520,815.910,842.230,842.230,0.000,0.000,0
1507101316.343,840.585,822.490,843.875,835.650,0.000,0.000,0
1507101316.343,842.230,822.490,843.875,837.295,0.000,0.000,0
1507101316.343,845.520,817.555,845.520,838.940,0.000,0.000,0
1507101316.343,837.295,822.490,842.230,835.650,0.000,0.000,0
1507101316.411,837.295,822.490,847.165,843.875,0.000,0.000,0
1507101316.411,835.650,822.490,848.810,843.875,0.000,0.000,0
1507101316.411,845.520,822.490,843.875,845.520,0.000,0.000,0
1507101316.411,845.520,819.200,845.520,845.520,0.000,0.000,0
1507101316.411,852.100,819.200,843.875,855.390,0.000,0.000,0
1507101316.411,843.875,822.490,845.520,850.455,0.000,0.000,0
1507101316.411,843.875,824.135,845.520,845.520,0.000,0.000,0
1507101316.411,842.230,819.200,840.585,852.100,0.000,0.000,0
1507101316.411,837.295,822.490,843.875,838.940,0.000,0.000,0
1507101316.411,842.230,819.200,848.810,843.875,0.000,0.000,0
1507101316.411,837.295,815.910,848.810,848.810,0.000,0.000,0
1507101316.411,845.520,820.845,848.810,852.100,0.000,0.000,0
1507101316.411,845.520,824.135,845.520,842.230,0.000,0.000,0
1507101316.411,838.940,824.135,842.230,850.455,0.000,0.000,0
1507101316.411,837.295,824.135,847.165,838.940,0.000,0.000,0
1507101316.411,845.520,819.200,843.875,847.165,0.000,0.000,0
1507101316.477,850.455,819.200,845.520,855.390,0.000,0.000,0
1507101316.477,847.165,817.555,845.520,847.165,0.000,0.000,0
1507101316.477,842.230,822.490,847.165,847.165,0.000,0.000,0
1507101316.477,848.810,820.845,845.520,850.455,0.000,0.000,0
1507101316.477,845.520,817.555,845.520,840.585,0.000,0.000,0
1507101316.477,855.390,817.555,843.875,850.455,0.000,0.000,0
1507101316.477,845.520,819.200,845.520,847.165,0.000,0.000,0
1507101316.477,838.940,820.845,847.165,838.940,0.000,0.000,0
1507101316.477,848.810,820.845,845.520,855.390,0.000,0.000,0
1507101316.477,852.100,815.910,845.520,858.680,0.000,0.000,0
1507101316.477,847.165,812.620,843.875,857.035,0.000,0.000,0
1507101316.477,840.585,819.200,847.165,852.100,0.000,0.000,0
1507101316.477,845.520,819.200,850.455,853.745,0.000,0.000,0
1507101316.477,838.940,817.555,845.520,845.520,0.000,0.000,0
1507101316.477,837.295,820.845,847.165,837.295,0.000,0.000,0
1507101316.477,842.230,815.910,848.810,843.875,0.000,0.000,0
1507101316.561,837.295,819.200,852.100,840.585,0.000,0.000,0
1507101316.561,847.165,820.845,850.455,838.940,0.000,0.000,0
1507101316.561,848.810,815.910,845.520,843.875,0.000,0.000,0
1507101316.561,845.520,815.910,847.165,837.295,0.000,0.000,0
1507101316.561,845.520,819.200,848.810,843.875,0.000,0.000,0
1507101316.561,840.585,819.200,850.455,837.295,0.000,0.000,0
1507101316.561,842.230,817.555,848.810,845.520,0.000,0.000,0
1507101316.561,843.875,819.200,847.165,838.940,0.000,0.000,0
1507101316.561,850.455,824.135,847.165,845.520,0.000,0.000,0
1507101316.561,853.745,824.135,843.875,853.745,0.000,0.000,0
1507101316.561,848.810,822.490,845.520,842.230,0.000,0.000,0
1507101316.561,848.810,819.200,843.875,840.585,0.000,0.000,0
1507101316.561,847.165,815.910,848.810,842.230,0.000,0.000,0
1507101316.561,852.100,820.845,850.455,848.810,0.000,0.000,0
1507101316.561,847.165,817.555,847.165,848.810,0.000,0.000,0
1507101316.561,850.455,817.555,847.165,847.165,0.000,0.000,0
1507101316.627,857.035,820.845,845.520,850.455,0.000,0.000,0
1507101316.627,848.810,822.490,850.455,858.680,0.000,0.000,0
1507101316.627,855.390,824.135,848.810,857.035,0.000,0.000,0
1507101316.627,855.390,820.845,848.810,848.810,0.000,0.000,0
1507101316.627,858.680,817.555,848.810,853.745,0.000,0.000,0
1507101316.627,848.810,822.490,852.100,842.230,0.000,0.000,0
1507101316.627,855.390,825.780,850.455,853.745,0.000,0.000,0
1507101316.627,852.100,814.265,848.810,855.390,0.000,0.000,0
1507101316.627,848.810,812.620,850.455,845.520,0.000,0.000,0
1507101316.627,852.100,819.200,850.455,847.165,0.000,0.000,0
1507101316.627,848.810,822.490,852.100,842.230,0.000,0.000,0
1507101316.627,857.035,825.780,848.810,852.100,0.000,0.000,0
1507101316.627,852.100,822.490,845.520,843.875,0.000,0.000,0
1507101316.627,853.745,819.200,845.520,843.875,0.000,0.000,0
1507101316.627,847.165,820.845,850.455,845.520,0.000,0.000,0
1507101316.627,852.100,820.845,848.810,850.455,0.000,0.000,0
1507101316.627,848.810,820.845,848.810,840.585,0.000,0.000,0
1507101316.711,852.100,814.265,845.520,850.455,0.000,0.000,0
1507101316.711,842.230,815.910,850.455,845.520,0.000,0.000,0
1507101316.711,845.520,817.555,852.100,845.520,0.000,0.000,0
1507101316.711,853.745,814.265,847.165,852.100,0.000,0.000,0
1507101316.711,843.875,819.200,847.165,848.810,0.000,0.000,0
1507101316.711,835.650,817.555,843.875,845.520,0.000,0.000,0
1507101316.711,838.940,822.490,848.810,850.455,0.000,0.000,0
1507101316.711,842.230,815.910,850.455,855.390,0.000,0.000,0
1507101316.711,837.295,815.910,850.455,837.295,0.000,0.000,0
1507101316.711,838.940,815.910,847.165,840.585,0.000,0.000,0
1507101316.711,827.425,814.265,847.165,838.940,0.000,0.000,0
1507101316.711,822.490,820.845,848.810,832.360,0.000,0.000,0
1507101316.711,835.650,817.555,847.165,838.940,0.000,0.000,0
1507101316.711,834.005,817.555,847.165,837.295,0.000,0.000,0
1507101316.711,835.650,817.555,845.520,830.715,0.000,0.000,0
1507101316.711,835.650,820.845,848.810,830.715,0.000,0.000,0
1507101316.776,843.875,820.845,848.810,837.295,0.000,0.000,0
1507101316.776,847.165,817.555,850.455,842.230,0.000,0.000,0
1507101316.776,843.875,814.265,845.520,838.940,0.000,0.000,0
1507101316.776,842.230,820.845,845.520,837.295,0.000,0.000,0
1507101316.776,843.875,820.845,847.165,842.230,0.000,0.000,0
1507101316.776,842.230,824.135,847.165,838.940,0.000,0.000,0
1507101316.776,845.520,819.200,845.520,852.100,0.000,0.000,0
1507101316.776,838.940,815.910,847.165,850.455,0.000,0.000,0
1507101316.776,837.295,819.200,850.455,842.230,0.000,0.000,0
1507101316.776,843.875,820.845,848.810,848.810,0.000,0.000,0
1507101316.776,840.585,819.200,848.810,842.230,0.000,0.000,0
1507101316.776,850.455,819.200,845.520,855.390,0.000,0.000,0
1507101316.776,842.230,820.845,850.455,850.455,0.000,0.000,0
1507101316.776,847.165,822.490,852.100,850.455,0.000,0.000,0
1507101316.776,848.810,824.135,848.810,845.520,0.000,0.000,0
1507101316.776,850.455,819.200,848.810,850.455,0.000,0.000,0
1507101316.860,850.455,819.200,848.810,852.100,0.000,0.000,0
1507101316.860,845.520,822.490,852.100,848.810,0.000,0.000,0
1507101316.860,840.585,822.490,848.810,840.585,0.000,0.000,0
1507101316.860,843.875,815.910,843.875,832.360,0.000,0.000,0
1507101316.860,843.875,820.845,843.875,830.715,0.000,0.000,0
1507101316.860,838.940,822.490,843.875,837.295,0.000,0.000,0
1507101316.860,830.715,824.135,845.520,824.135,0.000,0.000,0
1507101316.860,840.585,825.780,843.875,835.650,0.000,0.000,0
1507101316.860,845.520,820.845,840.585,830.715,0.000,0.000,0
1507101316.860,845.520,824.135,843.875,834.005,0.000,0.000,0
1507101316.860,850.455,825.780,847.165,842.230,0.000,0.000,0
1507101316.860,855.390,825.780,848.810,842.230,0.000,0.000,0
1507101316.860,855.390,817.555,845.520,847.165,0.000,0.000,0
1507101316.860,858.680,814.265,843.875,845.520,0.000,0.000,0
1507101316.860,855.390,822.490,848.810,853.745,0.000,0.000,0
1507101316.860,848.810,817.555,848.810,847.165,0.000,0.000,0
1507101316.927,853.745,822.490,848.810,843.875,0.000,0.000,0
1507101316.927,853.745,819.200,848.810,847.165,0.000,0.000,0
1507101316.927,837.295,820.845,853.745,845.520,0.000,0.000,0
1507101316.927,842.230,824.135,852.100,848.810,0.000,0.000,0
1507101316.927,847.165,817.555,850.455,858.680,0.000,0.000,0
1507101316.927,840.585,822.490,847.165,847.165,0.000,0.000,0
1507101316.927,840.585,814.265,848.810,847.165,0.000,0.000,0
1507101316.927,837.295,817.555,852.100,855.390,0.000,0.000,0
1507101316.927,834.005,820.845,852.100,843.875,0.000,0.000,0
1507101316.927,837.295,817.555,848.810,834.005,0.000,0.000,0
1507101316.927,837.295,819.200,847.165,842.230,0.000,0.000,0
1507101316.927,829.070,824.135,853.745,834.005,0.000,0.000,0
1507101316.927,835.650,822.490,850.455,840.585,0.000,0.000,0
1507101316.927,835.650,817.555,847.165,837.295,0.000,0.000,0
1507101316.927,837.295,817.555,850.455,830.715,0.000,0.000,0
1507101316.927,832.360,820.845,848.810,830.715,0.000,0.000,0
1507101316.993,835.650,819.200,850.455,840.585,0.000,0.000,0
1507101316.993,837.295,819.200,848.810,838.940,0.000,0.000,0
1507101316.993,837.295,822.490,845.520,835.650,0.000,0.000,0
1507101316.993,843.875,820.845,847.165,843.875,0.000,0.000,0
1507101316.993,842.230,819.200,852.100,847.165,0.000,0.000,0
1507101316.993,843.875,822.490,852.100,848.810,0.000,0.000,0
1507101316.993,848.810,817.555,850.455,858.680,0.000,0.000,0
1507101316.993,842.230,819.200,848.810,847.165,0.000,0.000,0
1507101316.993,837.295,824.135,850.455,850.455,0.000,0.000,0
1507101316.993,843.875,820.845,852.100,857.035,0.000,0.000,0
1507101316.993,840.585,822.490,850.455,845.520,0.000,0.000,0
1507101316.993,845.520,819.200,848.810,850.455,0.000,0.000,0
1507101316.993,837.295,819.200,848.810,842.230,0.000,0.000,0
1507101316.993,843.875,817.555,850.455,850.455,0.000,0.000,0
1507101316.993,848.810,817.555,848.810,855.390,0.000,0.000,0
1507101316.993,843.875,819.200,847.165,847.165,0.000,0.000,0
1507101317.076,842.230,817.555,845.520,850.455,0.000,0.000,0
1507101317.076,832.360,824.135,848.810,834.005,0.000,0.000,0
1507101317.076,845.520,827.425,848.810,840.585,0.000,0.000,0
1507101317.076,850.455,827.425,847.165,842.230,0.000,0.000,0
1507101317.076,853.745,819.200,843.875,842.230,0.000,0.000,0
1507101317.076,852.100,817.555,845.520,850.455,0.000,0.000,0
1507101317.076,843.875,822.490,848.810,845.520,0.000,0.000,0
1507101317.076,852.100,820.845,847.165,848.810,0.000,0.000,0
1507101317.076,847.165,822.490,848.810,842.230,0.000,0.000,0
1507101317.076,848.810,820.845,845.520,840.585,0.000,0.000,0
1507101317.076,847.165,822.490,848.810,842.230,0.000,0.000,0
1507101317.076,845.520,820.845,848.810,850.455,0.000,0.000,0
1507101317.076,843.875,822.490,850.455,845.520,0.000,0.000,0
1507101317.076,838.940,817.555,847.165,837.295,0.000,0.000,0
1507101317.076,842.230,822.490,848.810,847.165,0.000,0.000,0
1507101317.076,843.875,824.135,852.100,847.165,0.000,0.000,0
1507101317.145,842.230,822.490,847.165,843.875,0.000,0.000,0
1507101317.145,848.810,822.490,845.520,843.875,0.000,0.000,0
1507101317.145,840.585,822.490,847.165,834.005,0.000,0.000,0
1507101317.145,845.520,824.135,848.810,848.810,0.000,0.000,0
1507101317.145,843.875,819.200,850.455,847.165,0.000,0.000,0
1507101317.145,845.520,817.555,845.520,847.165,0.000,0.000,0
1507101317.145,843.875,812.620,843.875,847.165,0.000,0.000,0
1507101317.145,840.585,814.265,847.165,848.810,0.000,0.000,0
1507101317.145,842.230,819.200,848.810,850.455,0.000,0.000,0
1507101317.145,847.165,819.200,848.810,843.875,0.000,0.000,0
1507101317.145,847.165,817.555,843.875,842.230,0.000,0.000,0
1507101317.145,842.230,820.845,847.165,840.585,0.000,0.000,0
1507101317.145,843.875,819.200,848.810,847.165,0.000,0.000,0
1507101317.145,840.585,815.910,848.810,843.875,0.000,0.000,0
1507101317.145,843.875,819.200,848.810,848.810,0.000,0.000,0
1507101317.145,845.520,815.910,848.810,852.100,0.000,0.000,0
1507101317.211,847.165,822.490,850.455,857.035,0.000,0.000,0
1507101317.211,842.230,819.200,850.455,850.455,0.000,0.000,0
1507101317.211,842.230,817.555,847.165,842.230,0.000,0.000,0
1507101317.211,840.585,817.555,847.165,842.230,0.000,0.000,0
1507101317.211,832.360,820.845,847.165,837.295,0.000,0.000,0
1507101317.211,838.940,822.490,845.520,843.875,0.000,0.000,0
1507101317.211,843.875,820.845,845.520,853.745,0.000,0.000,0
1507101317.211,842.230,815.910,845.520,837.295,0.000,0.000,0
1507101317.211,845.520,819.200,847.165,840.585,0.000,0.000,0
1507101317.211,842.230,820.845,850.455,848.810,0.000,0.000,0
1507101317.211,843.875,817.555,850.455,848.810,0.000,0.000,0
1507101317.211,852.100,817.555,850.455,853.745,0.000,0.000,0
1507101317.211,845.520,819.200,845.520,850.455,0.000,0.000,0
1507101317.211,835.650,825.780,848.810,843.875,0.000,0.000,0
1507101317.211,837.295,824.135,850.455,842.230,0.000,0.000,0
1507101317.211,847.165,824.135,848.810,847.165,0.000,0.000,0
1507101317.211,845.520,817.555,847.165,838.940,0.000,0.000,0
1507101317.291,850.455,822.490,850.455,842.230,0.000,0.000,0
1507101317.291,845.520,822.490,848.810,845.520,0.000,0.000,0
1507101317.291,845.520,815.910,850.455,843.875,0.000,0.000,0
1507101317.291,850.455,817.555,847.165,853.745,0.000,0.000,0
1507101317.291,842.230,815.910,845.520,850.455,0.000,0.000,0
1507101317.291,838.940,822.490,850.455,848.810,0.000,0.000,0
1507101317.291,842.230,820.845,848.810,853.745,0.000,0.000,0
1507101317.291,842.230,817.555,845.520,842.230,0.000,0.000,0
1507101317.291,850.455,814.265,845.520,847.165,0.000,0.000,0
1507101317.291,843.875,817.555,845.520,853.745,0.000,0.000,0
1507101317.291,847.165,824.135,848.810,853.745,0.000,0.000,0
1507101317.291,843.875,815.910,848.810,848.810,0.000,0.000,0
1507101317.291,840.585,820.845,845.520,840.585,0.000,0.000,0
1507101317.291,842.230,820.845,847.165,845.520,0.000,0.000,0
1507101317.291,834.005,820.845,848.810,840.585,0.000,0.000,0
1507101317.291,840.585,825.780,848.810,837.295,0.000,0.000,0
1507101317.357,845.520,820.845,847.165,835.650,0.000,0.000,0
1507101317.357,838.940,817.555,842.230,822.490,0.000,0.000,0
1507101317.357,845.520,817.555,842.230,840.585,0.000,0.000,0
1507101317.357,843.875,819.200,845.520,837.295,0.000,0.000,0
1507101317.357,853.745,815.910,845.520,842.230,0.000,0.000,0
1507101317.357,858.680,817.555,842.230,842.230,0.000,0.000,0
1507101317.357,853.745,819.200,843.875,838.940,0.000,0.000,0
1507101317.357,848.810,822.490,845.520,842.230,0.000,0.000,0
1507101317.357,852.100,822.490,842.230,843.875,0.000,0.000,0
1507101317.357,848.810,820.845,843.875,837.295,0.000,0.000,0
1507101317.357,847.165,815.910,843.875,845.520,0.000,0.000,0
1507101317.357,842.230,815.910,843.875,850.455,0.000,0.000,0
1507101317.357,842.230,817.555,848.810,845.520,0.000,0.000,0
1507101317.357,847.165,817.555,848.810,847.165,0.000,0.000,0
1507101317.357,852.100,819.200,845.520,848.810,0.000,0.000,0
1507101317.357,848.810,820.845,845.520,853.745,0.000,0.000,0
1507101317.441,847.165,825.780,848.810,852.100,0.000,0.000,0
1507101317.441,848.810,824.135,848.810,847.165,0.000,0.000,0
1507101317.441,857.035,820.845,845.520,848.810,0.000,0.000,0
1507101317.441,852.100,815.910,845.520,838.940,0.000,0.000,0
1507101317.441,853.745,822.490,847.165,852.100,0.000,0.000,0
1507101317.441,848.810,822.490,847.165,838.940,0.000,0.000,0
1507101317.441,848.810,822.490,843.875,834.005,0.000,0.000,0
1507101317.441,847.165,819.200,843.875,840.585,0.000,0.000,0
1507101317.441,843.875,817.555,847.165,835.650,0.000,0.000,0
1507101317.441,848.810,822.490,847.165,842.230,0.000,0.000,0
1507101317.441,848.810,822.490,845.520,840.585,0.000,0.000,0
1507101317.441,852.100,820.845,842.230,840.585,0.000,0.000,0
1507101317.441,850.455,819.200,843.875,838.940,0.000,0.000,0
1507101317.441,848.810,817.555,850.455,850.455,0.000,0.000,0
1507101317.441,852.100,820.845,848.810,843.875,0.000,0.000,0
1507101317.441,855.390,819.200,845.520,843.875,0.000,0.000,0
1507101317.507,855.390,819.200,840.585,847.165,0.000,0.000,0
1507101317.507,838.940,827.425,845.520,835.650,0.000,0.000,0
1507101317.507,848.810,820.845,850.455,853.745,0.000,0.000,0
1507101317.507,840.585,819.200,852.100,848.810,0.000,0.000,0
1507101317.507,835.650,819.200,847.165,840.585,0.000,0.000,0
1507101317.507,837.295,814.265,847.165,845.520,0.000,0.000,0
1507101317.507,837.295,824.135,850.455,843.875,0.000,0.000,0
1507101317.507,843.875,817.555,848.810,855.390,0.000,0.000,0
1507101317.507,840.585,815.910,850.455,847.165,0.000,0.000,0
1507101317.507,850.455,822.490,843.875,847.165,0.000,0.000,0
1507101317.507,842.230,822.490,847.165,842.230,0.000,0.000,0
1507101317.507,848.810,825.780,847.165,840.585,0.000,0.000,0
1507101317.507,845.520,820.845,845.520,840.585,0.000,0.000,0
1507101317.507,847.165,819.200,842.230,834.005,0.000,0.000,0
1507101317.507,848.810,819.200,842.230,838.940,0.000,0.000,0
1507101317.507,837.295,824.135,845.520,837.295,0.000,0.000,0
1507101317.576,842.230,819.200,842.230,835.650,0.000,0.000,0
1507101317.576,832.360,812.620,840.585,825.780,0.000,0.000,0
1507101317.576,837.295,815.910,843.875,830.715,0.000,0.000,0
1507101317.576,838.940,820.845,848.810,840.585,0.000,0.000,0
1507101317.576,840.585,822.490,850.455,842.230,0.000,0.000,0
1507101317.576,845.520,819.200,847.165,855.390,0.000,0.000,0
1507101317.576,837.295,817.555,843.875,847.165,0.000,0.000,0
1507101317.576,840.585,817.555,847.165,852.100,0.000,0.000,0
1507101317.576,835.650,815.910,847.165,858.680,0.000,0.000,0
1507101317.576,834.005,815.910,847.165,850.455,0.000,0.000,0
1507101317.576,840.585,812.620,845.520,850.455,0.000,0.000,0
1507101317.576,832.360,812.620,842.230,845.520,0.000,0.000,0
1507101317.576,830.715,820.845,847.165,845.520,0.000,0.000,0
1507101317.576,832.360,822.490,848.810,845.520,0.000,0.000,0
1507101317.576,840.585,820.845,845.520,848.810,0.000,0.000,0
1507101317.576,842.230,819.200,843.875,842.230,0.000,0.000,0
1507101317.657,838.940,820.845,847.165,845.520,0.000,0.000,0
1507101317.657,845.520,820.845,848.810,843.875,0.000,0.000,0
1507101317.657,845.520,814.265,848.810,842.230,0.000,0.000,0
1507101317.657,842.230,817.555,845.520,835.650,0.000,0.000,0
1507101317.657,843.875,817.555,843.875,847.165,0.000,0.000,0
1507101317.657,835.650,820.845,850.455,848.810,0.000,0.000,0
1507101317.657,832.360,820.845,848.810,840.585,0.000,0.000,0
1507101317.657,843.875,817.555,848.810,845.520,0.000,0.000,0
1507101317.657,843.875,819.200,847.165,840.585,0.000,0.000,0
1507101317.657,842.230,824.135,848.810,838.940,0.000,0.000,0
1507101317.657,845.520,822.490,850.455,852.100,0.000,0.000,0
1507101317.657,845.520,822.490,850.455,842.230,0.000,0.000,0
1507101317.657,850.455,817.555,847.165,850.455,0.000,0.000,0
1507101317.657,840.585,822.490,848.810,858.680,0.000,0.000,0
1507101317.657,845.520,824.135,853.745,853.745,0.000,0.000,0
1507101317.657,843.875,820.845,850.455,852.100,0.000,0.000,0
1507101317.727,850.455,817.555,847.165,850.455,0.000,0.000,0
1507101317.727,848.810,820.845,847.165,848.810,0.000,0.000,0
1507101317.727,843.875,820.845,848.810,850.455,0.000,0.000,0
1507101317.727,838.940,817.555,848.810,840.585,0.000,0.000,0
1507101317.727,842.230,820.845,845.520,838.940,0.000,0.000,0
1507101317.727,847.165,815.910,843.875,834.005,0.000,0.000,0
1507101317.727,840.585,819.200,847.165,840.585,0.000,0.000,0
1507101317.727,840.585,820.845,850.455,843.875,0.000,0.000,0
1507101317.727,845.520,820.845,848.810,835.650,0.000,0.000,0
1507101317.727,843.875,819.200,845.520,838.940,0.000,0.000,0
1507101317.727,843.875,825.780,847.165,832.360,0.000,0.000,0
1507101317.727,845.520,819.200,845.520,840.585,0.000,0.000,0
1507101317.727,837.295,819.200,850.455,832.360,0.000,0.000,0
1507101317.727,850.455,819.200,845.520,837.295,0.000,0.000,0
1507101317.727,852.100,814.265,843.875,840.585,0.000,0.000,0
1507101317.727,848.810,822.490,848.810,840.585,0.000,0.000,0
1507101317.807,847.165,817.555,848.810,847.165,0.000,0.000,0
1507101317.807,847.165,817.555,848.810,855.390,0.000,0.000,0
1507101317.807,848.810,815.910,847.165,857.035,0.000,0.000,0
1507101317.807,843.875,820.845,847.165,860.325,0.000,0.000,0
1507101317.807,843.875,824.135,848.810,858.680,0.000,0.000,0
1507101317.807,840.585,819.200,847.165,853.745,0.000,0.000,0
1507101317.807,842.230,820.845,847.165,838.940,0.000,0.000,0
1507101317.807,843.875,819.200,847.165,832.360,0.000,0.000,0
1507101317.807,845.520,822.490,850.455,845.520,0.000,0.000,0
1507101317.807,840.585,824.135,850.455,837.295,0.000,0.000,0
1507101317.807,843.875,817.555,848.810,850.455,0.000,0.000,0
1507101317.807,838.940,812.620,845.520,842.230,0.000,0.000,0
1507101317.807,837.295,819.200,848.810,837.295,0.000,0.000,0
1507101317.807,840.585,820.845,852.100,842.230,0.000,0.000,0
1507101317.807,847.165,817.555,847.165,838.940,0.000,0.000,0
1507101317.807,847.165,812.620,847.165,837.295,0.000,0.000,0
1507101317.807,842.230,809.330,843.875,832.360,0.000,0.000,0
1507101317.873,842.230,817.555,847.165,840.585,0.000,0.000,0
1507101317.873,838.940,824.135,848.810,832.360,0.000,0.000,0
1507101317.873,848.810,819.200,847.165,834.005,0.000,0.000,0
1507101317.873,848.810,812.620,845.520,843.875,0.000,0.000,0
1507101317.873,837.295,814.265,848.810,840.585,0.000,0.000,0
1507101317.873,838.940,820.845,848.810,842.230,0.000,0.000,0
1507101317.873,843.875,819.200,845.520,847.165,0.000,0.000,0
1507101317.873,843.875,817.555,847.165,845.520,0.000,0.000,0
1507101317.873,840.585,815.910,847.165,840.585,0.000,0.000,0
1507101317.873,845.520,814.265,850.455,855.390,0.000,0.000,0
1507101317.873,840.585,822.490,850.455,838.940,0.000,0.000,0
1507101317.873,848.810,819.200,843.875,842.230,0.000,0.000,0
1507101317.873,845.520,819.200,845.520,847.165,0.000,0.000,0
1507101317.873,832.360,815.910,847.165,842.230,0.000,0.000,0
1507101317.873,838.940,819.200,850.455,845.520,0.000,0.000,0
1507101317.873,845.520,817.555,848.810,845.520,0.000,0.000,0
1507101317.958,845.520,812.620,845.520,840.585,0.000,0.000,0
1507101317.958,840.585,814.265,845.520,842.230,0.000,0.000,0
1507101317.958,838.940,817.555,848.810,835.650,0.000,0.000,0
1507101317.958,845.520,820.845,848.810,842.230,0.000,0.000,0
1507101317.958,843.875,824.135,847.165,834.005,0.000,0.000,0
1507101317.958,843.875,822.490,845.520,840.585,0.000,0.000,0
1507101317.958,832.360,820.845,847.165,835.650,0.000,0.000,0
1507101317.958,832.360,825.780,852.100,829.070,0.000,0.000,0
1507101317.958,834.005,822.490,852.100,829.070,0.000,0.000,0
1507101317.958,835.650,815.910,852.100,829.070,0.000,0.000,0
1507101317.958,834.005,820.845,855.390,834.005,0.000,0.000,0
1507101317.958,825.780,817.555,853.745,832.360,0.000,0.000,0
1507101317.958,824.135,820.845,857.035,829.070,0.000,0.000,0
1507101317.958,827.425,819.200,857.035,822.490,0.000,0.000,0
1507101317.958,827.425,817.555,858.680,827.425,0.000,0.000,0
1507101317.958,820.845,819.200,865.260,830.715,0.000,0.000,0
1507101318.022,817.555,822.490,868.550,827.425,0.000,0.000,0
1507101318.022,806.040,825.780,865.260,812.620,0.000,0.000,0
1507101318.022,807.685,819.200,865.260,812.620,0.000,0.000,0
1507101318.022,797.815,822.490,870.195,804.395,0.000,0.000,0
1507101318.022,794.526,817.555,868.550,794.526,0.000,0.000,0
1507101318.022,794.526,820.845,871.840,799.460,0.000,0.000,0
1507101318.022,784.656,815.910,870.195,783.011,0.000,0.000,0
1507101318.022,787.946,819.200,873.485,783.011,0.000,0.000,0
1507101318.022,776.431,819.200,876.775,787.946,0.000,0.000,0
1507101318.022,773.141,817.555,878.419,769.851,0.000,0.000,0
1507101318.022,776.431,814.265,881.709,769.851,0.000,0.000,0
1507101318.022,766.561,807.685,881.709,755.046,0.000,0.000,0
1507101318.022,763.271,810.975,888.289,759.981,0.000,0.000,0
1507101318.022,753.401,812.620,884.999,750.111,0.000,0.000,0
1507101318.022,753.401,812.620,881.709,746.821,0.000,0.000,0
1507101318.022,746.821,814.265,880.064,750.111,0.000,0.000,0
1507101318.092,740.241,812.620,883.354,741.886,0.000,0.000,0
1507101318.092,741.886,810.975,883.354,751.756,0.000,0.000,0
1507101318.092,733.661,814.265,881.709,736.951,0.000,0.000,0
1507101318.092,748.466,812.620,876.775,743.531,0.000,0.000,0
1507101318.092,751.756,807.685,873.485,751.756,0.000,0.000,0
1507101318.092,755.046,812.620,875.130,755.046,0.000,0.000,0
1507101318.092,763.271,806.040,870.195,768.206,0.000,0.000,0
1507101318.092,766.561,807.685,863.615,761.626,0.000,0.000,0
1507101318.092,778.076,812.620,860.325,769.851,0.000,0.000,0
1507101318.092,783.011,814.265,860.325,779.721,0.000,0.000,0
1507101318.092,786.301,819.200,858.680,779.721,0.000,0.000,0
1507101318.092,802.750,814.265,853.745,791.236,0.000,0.000,0
1507101318.092,809.330,812.620,848.810,799.460,0.000,0.000,0
1507101318.092,814.265,815.910,847.165,806.040,0.000,0.000,0
1507101318.092,820.845,815.910,847.165,817.555,0.000,0.000,0
1507101318.092,824.135,820.845,845.520,822.490,0.000,0.000,0
1507101318.172,829.070,815.910,840.585,825.780,0.000,0.000,0
1507101318.172,830.715,819.200,838.940,832.360,0.000,0.000,0
1507101318.172,834.005,824.135,843.875,842.230,0.000,0.000,0
1507101318.172,834.005,820.845,840.585,842.230,0.000,0.000,0
1507101318.172,845.520,815.910,837.295,847.165,0.000,0.000,0
1507101318.172,861.970,812.620,832.360,860.325,0.000,0.000,0
1507101318.172,852.100,817.555,835.650,857.035,0.000,0.000,0
1507101318.172,857.035,822.490,842.230,861.970,0.000,0.000,0
1507101318.172,870.195,824.135,838.940,876.775,0.000,0.000,0
1507101318.172,868.550,817.555,835.650,870.195,0.000,0.000,0
1507101318.172,883.354,814.265,834.005,881.709,0.000,0.000,0
1507101318.172,878.419,825.780,837.295,888.289,0.000,0.000,0
1507101318.172,875.130,827.425,837.295,880.064,0.000,0.000,0
1507101318.172,891.579,822.490,835.650,889.934,0.000,0.000,0
1507101318.172,894.869,819.200,832.360,896.514,0.000,0.000,0
1507101318.172,894.869,819.200,832.360,899.804,0.000,0.000,0
1507101318.263,896.514,827.425,834.005,903.094,0.000,0.000,0
1507101318.263,899.804,829.070,830.715,904.739,0.000,0.000,0
1507101318.263,906.384,824.135,829.070,903.094,0.000,0.000,0
1507101318.263,904.739,820.845,829.070,904.739,0.000,0.000,0
1507101318.263,896.514,825.780,834.005,906.384,0.000,0.000,0
1507101318.263,896.514,824.135,834.005,906.384,0.000,0.000,0
1507101318.263,901.449,825.780,832.360,901.449,0.000,0.000,0
1507101318.263,904.739,825.780,829.070,904.739,0.000,0.000,0
1507101318.263,893.224,827.425,832.360,896.514,0.000,0.000,0
1507101318.263,901.449,829.070,834.005,904.739,0.000,0.000,0
1507101318.263,901.449,829.070,832.360,906.384,0.000,0.000,0
1507101318.263,899.804,824.135,830.715,898.159,0.000,0.000,0
1507101318.263,904.739,824.135,832.360,908.029,0.000,0.000,0
1507101318.263,891.579,829.070,834.005,899.804,0.000,0.000,0
1507101318.263,901.449,827.425,830.715,903.094,0.000,0.000,0
1507101318.263,901.449,827.425,830.715,906.384,0.000,0.000,0
1507101318.305,893.224,825.780,829.070,888.289,0.000,0.000,0
1507101318.305,894.869,824.135,834.005,903.094,0.000,0.000,0
1507101318.305,891.579,824.135,838.940,893.224,0.000,0.000,0
1507101318.305,896.514,824.135,832.360,893.224,0.000,0.000,0
1507101318.305,893.224,824.135,834.005,889.934,0.000,0.000,0
1507101318.305,891.579,827.425,834.005,894.869,0.000,0.000,0
1507101318.305,891.579,825.780,835.650,911.319,0.000,0.000,0
1507101318.305,893.224,827.425,835.650,904.739,0.000,0.000,0
1507101318.305,893.224,827.425,835.650,896.514,0.000,0.000,0
1507101318.305,888.289,824.135,838.940,891.579,0.000,0.000,0
1507101318.305,888.289,827.425,838.940,894.869,0.000,0.000,0
1507101318.305,883.354,824.135,840.585,894.869,0.000,0.000,0
1507101318.305,878.419,824.135,837.295,888.289,0.000,0.000,0
1507101318.305,884.999,819.200,835.650,884.999,0.000,0.000,0
1507101318.305,875.130,825.780,838.940,880.064,0.000,0.000,0
1507101318.305,875.130,832.360,838.940,870.195,0.000,0.000,0
1507101318.390,876.775,824.135,835.650,875.130,0.000,0.000,0
1507101318.390,868.550,829.070,835.650,860.325,0.000,0.000,0
1507101318.390,876.775,827.425,835.650,868.550,0.000,0.000,0
1507101318.390,873.485,825.780,840.585,871.840,0.000,0.000,0
1507101318.390,880.064,829.070,842.230,876.775,0.000,0.000,0
1507101318.390,866.905,824.135,838.940,868.550,0.000,0.000,0
1507101318.390,868.550,817.555,835.650,868.550,0.000,0.000,0
1507101318.390,866.905,820.845,840.585,878.419,0.000,0.000,0
1507101318.390,858.680,827.425,838.940,860.325,0.000,0.000,0
1507101318.390,868.550,825.780,837.295,866.905,0.000,0.000,0
1507101318.390,866.905,822.490,837.295,865.260,0.000,0.000,0
1507101318.390,863.615,825.780,837.295,865.260,0.000,0.000,0
1507101318.390,863.615,822.490,843.875,871.840,0.000,0.000,0
1507101318.390,868.550,825.780,843.875,876.775,0.000,0.000,0
1507101318.390,858.680,824.135,838.940,858.680,0.000,0.000,0
1507101318.390,857.035,820.845,838.940,857.035,0.000,0.000,0
1507101318.390,857.035,822.490,843.875,865.260,0.000,0.000,0
1507101318.455,853.745,817.555,842.230,861.970,0.000,0.000,0
1507101318.455,853.745,819.200,842.230,863.615,0.000,0.000,0
1507101318.455,852.100,820.845,840.585,853.745,0.000,0.000,0
1507101318.455,852.100,820.845,838.940,852.100,0.000,0.000,0
1507101318.455,848.810,820.845,842.230,858.680,0.000,0.000,0
1507101318.455,855.390,824.135,842.230,858.680,0.000,0.000,0
1507101318.455,860.325,817.555,835.650,863.615,0.000,0.000,0
1507101318.455,852.100,820.845,840.585,858.680,0.000,0.000,0
1507101318.455,855.390,824.135,843.875,861.970,0.000,0.000,0
1507101318.455,850.455,819.200,842.230,855.390,0.000,0.000,0
1507101318.455,857.035,820.845,843.875,853.745,0.000,0.000,0
1507101318.455,860.325,819.200,840.585,855.390,0.000,0.000,0
1507101318.455,852.100,820.845,845.520,858.680,0.000,0.000,0
1507101318.455,853.745,822.490,847.165,860.325,0.000,0.000,0
1507101318.455,847.165,822.490,843.875,853.745,0.000,0.000,0
1507101318.455,853.745,819.200,845.520,857.035,0.000,0.000,0
1507101318.538,852.100,822.490,848.810,860.325,0.000,0.000,0
1507101318.538,850.455,827.425,852.100,857.035,0.000,0.000,0
1507101318.538,860.325,822.490,850.455,861.970,0.000,0.000,0
1507101318.538,858.680,819.200,845.520,850.455,0.000,0.000,0
1507101318.538,860.325,819.200,842.230,857.035,0.000,0.000,0
1507101318.538,853.745,819.200,848.810,861.970,0.000,0.000,0
1507101318.538,853.745,825.780,853.745,853.745,0.000,0.000,0
1507101318.538,858.680,820.845,850.455,858.680,0.000,0.000,0
1507101318.538,857.035,819.200,845.520,845.520,0.000,0.000,0
1507101318.538,852.100,819.200,847.165,847.165,0.000,0.000,0
1507101318.538,850.455,824.135,847.165,850.455,0.000,0.000,0
1507101318.538,853.745,824.135,848.810,852.100,0.000,0.000,0
1507101318.538,850.455,817.555,848.810,850.455,0.000,0.000,0
1507101318.538,848.810,817.555,848.810,852.100,0.000,0.000,0
1507101318.538,843.875,824.135,852.100,847.165,0.000,0.000,0
1507101318.538,852.100,819.200,852.100,855.390,0.000,0.000,0
1507101318.604,858.680,819.200,848.810,861.970,0.000,0.000,0
1507101318.604,852.100,815.910,847.165,850.455,0.000,0.000,0
1507101318.605,853.745,815.910,852.100,858.680,0.000,0.000,0
1507101318.605,848.810,819.200,853.745,855.390,0.000,0.000,0
1507101318.605,852.100,820.845,852.100,852.100,0.000,0.000,0
1507101318.605,857.035,820.845,845.520,852.100,0.000,0.000,0
1507101318.605,848.810,817.555,847.165,847.165,0.000,0.000,0
1507101318.605,853.745,822.490,847.165,852.100,0.000,0.000,0
1507101318.605,847.165,822.490,850.455,845.520,0.000,0.000,0
1507101318.605,853.745,822.490,847.165,855.390,0.000,0.000,0
1507101318.605,852.100,819.200,843.875,847.165,0.000,0.000,0
1507101318.605,847.165,819.200,848.810,847.165,0.000,0.000,0
1507101318.605,852.100,814.265,847.165,855.390,0.000,0.000,0
1507101318.605,847.165,812.620,848.810,852.100,0.000,0.000,0
1507101318.605,850.455,815.910,843.875,853.745,0.000,0.000,0
