timestamps,TP9,FP1,FP2,TP10,n/a,n/a,Marker0
1507100838.556,848.810,817.555,847.165,852.100,0.000,0.000,1
1507100838.556,810.975,797.815,827.425,832.360,0.000,0.000,0
1507100838.556,820.845,812.620,838.940,834.005,0.000,0.000,0
1507100838.556,861.970,832.360,860.325,860.325,0.000,0.000,0
1507100838.556,860.325,827.425,853.745,860.325,0.000,0.000,0
1507100838.556,802.750,804.395,829.070,835.650,0.000,0.000,0
1507100838.556,802.750,799.460,825.780,834.005,0.000,0.000,0
1507100838.556,852.100,819.200,848.810,842.230,0.000,0.000,0
1507100838.556,865.260,832.360,863.615,847.165,0.000,0.000,0
1507100838.556,812.620,819.200,843.875,834.005,0.000,0.000,0
1507100838.556,797.815,802.750,829.070,819.200,0.000,0.000,0
1507100838.556,814.265,819.200,842.230,829.070,0.000,0.000,0
1507100838.556,868.550,832.360,858.680,858.680,0.000,0.000,0
1507100838.556,847.165,834.005,858.680,845.520,0.000,0.000,0
1507100838.556,787.946,801.105,830.715,829.070,0.000,0.000,0
1507100838.556,794.526,807.685,838.940,827.425,0.000,0.000,0
1507100838.556,845.520,825.780,858.680,842.230,0.000,0.000,0
1507100838.636,878.419,827.425,858.680,855.390,0.000,0.000,0
1507100838.636,825.780,815.910,842.230,825.780,0.000,0.000,0
1507100838.636,819.200,801.105,824.135,812.620,0.000,0.000,0
1507100838.636,838.940,817.555,847.165,829.070,0.000,0.000,0
1507100838.636,878.419,825.780,858.680,860.325,0.000,0.000,0
1507100838.636,865.260,822.490,850.455,852.100,0.000,0.000,0
1507100838.636,792.881,802.750,829.070,827.425,0.000,0.000,0
1507100838.636,819.200,810.975,838.940,837.295,0.000,0.000,0
1507100838.636,858.680,827.425,860.325,853.745,0.000,0.000,0
1507100838.636,865.260,829.070,858.680,865.260,0.000,0.000,0
1507100838.636,812.620,807.685,835.650,835.650,0.000,0.000,0
1507100838.636,786.301,809.330,830.715,815.910,0.000,0.000,0
1507100838.636,838.940,824.135,848.810,840.585,0.000,0.000,0
1507100838.636,884.999,834.005,861.970,858.680,0.000,0.000,0
1507100838.636,845.520,820.845,842.230,835.650,0.000,0.000,0
1507100838.636,799.460,804.395,825.780,820.845,0.000,0.000,0
1507100838.702,819.200,814.265,840.585,832.360,0.000,0.000,0
1507100838.702,858.680,832.360,858.680,847.165,0.000,0.000,0
1507100838.702,865.260,830.715,860.325,850.455,0.000,0.000,0
1507100838.702,799.460,809.330,832.360,827.425,0.000,0.000,0
1507100838.702,799.460,806.040,832.360,822.490,0.000,0.000,0
1507100838.702,838.940,824.135,855.390,845.520,0.000,0.000,0
1507100838.702,878.419,829.070,857.035,865.260,0.000,0.000,0
1507100838.702,819.200,815.910,842.230,830.715,0.000,0.000,0
1507100838.702,786.301,809.330,829.070,817.555,0.000,0.000,0
1507100838.702,838.940,820.845,843.875,830.715,0.000,0.000,0
1507100838.702,884.999,835.650,860.325,850.455,0.000,0.000,0
1507100838.702,858.680,825.780,848.810,855.390,0.000,0.000,0
1507100838.702,806.040,806.040,827.425,829.070,0.000,0.000,0
1507100838.702,806.040,810.975,837.295,829.070,0.000,0.000,0
1507100838.702,858.680,830.715,860.325,837.295,0.000,0.000,0
1507100838.702,884.999,829.070,858.680,852.100,0.000,0.000,0
1507100838.787,810.975,807.685,834.005,832.360,0.000,0.000,0
1507100838.787,792.881,802.750,829.070,815.910,0.000,0.000,0
1507100838.787,847.165,820.845,847.165,837.295,0.000,0.000,0
1507100838.787,881.709,832.360,861.970,848.810,0.000,0.000,0
1507100838.787,850.455,815.910,840.585,840.585,0.000,0.000,0
1507100838.787,796.170,796.170,822.490,825.780,0.000,0.000,0
1507100838.787,806.040,812.620,843.875,834.005,0.000,0.000,0
1507100838.787,857.035,830.715,860.325,861.970,0.000,0.000,0
1507100838.787,870.195,832.360,863.615,866.905,0.000,0.000,0
1507100838.787,802.750,809.330,830.715,842.230,0.000,0.000,0
1507100838.787,812.620,806.040,829.070,829.070,0.000,0.000,0
1507100838.787,850.455,825.780,855.390,843.875,0.000,0.000,0
1507100838.787,868.550,835.650,863.615,848.810,0.000,0.000,0
1507100838.787,840.585,817.555,843.875,838.940,0.000,0.000,0
1507100838.787,799.460,807.685,832.360,817.555,0.000,0.000,0
1507100838.787,829.070,815.910,843.875,834.005,0.000,0.000,0
1507100838.853,875.130,830.715,860.325,863.615,0.000,0.000,0
1507100838.853,848.810,829.070,855.390,842.230,0.000,0.000,0
1507100838.853,814.265,807.685,827.425,827.425,0.000,0.000,0
1507100838.853,825.780,814.265,837.295,815.910,0.000,0.000,0
1507100838.853,850.455,830.715,855.390,843.875,0.000,0.000,0
1507100838.853,894.869,835.650,860.325,860.325,0.000,0.000,0
1507100838.853,819.200,812.620,835.650,840.585,0.000,0.000,0
1507100838.853,791.236,797.815,824.135,835.650,0.000,0.000,0
1507100838.853,842.230,819.200,850.455,837.295,0.000,0.000,0
1507100838.853,870.195,837.295,860.325,861.970,0.000,0.000,0
1507100838.853,842.230,827.425,850.455,855.390,0.000,0.000,0
1507100838.853,799.460,812.620,832.360,825.780,0.000,0.000,0
1507100838.853,825.780,810.975,837.295,847.165,0.000,0.000,0
1507100838.853,871.840,835.650,861.970,850.455,0.000,0.000,0
1507100838.853,878.419,838.940,861.970,857.035,0.000,0.000,0
1507100838.853,815.910,814.265,835.650,838.940,0.000,0.000,0
1507100838.919,815.910,806.040,829.070,820.845,0.000,0.000,0
1507100838.919,842.230,824.135,853.745,850.455,0.000,0.000,0
1507100838.919,868.550,837.295,866.905,858.680,0.000,0.000,0
1507100838.919,815.910,814.265,843.875,855.390,0.000,0.000,0
1507100838.919,789.591,802.750,830.715,840.585,0.000,0.000,0
1507100838.919,815.910,815.910,843.875,840.585,0.000,0.000,0
1507100838.919,842.230,832.360,863.615,866.905,0.000,0.000,0
1507100838.919,842.230,835.650,861.970,845.520,0.000,0.000,0
1507100838.919,815.910,810.975,835.650,825.780,0.000,0.000,0
1507100838.919,815.910,807.685,832.360,830.715,0.000,0.000,0
1507100838.919,868.550,827.425,853.745,845.520,0.000,0.000,0
1507100838.919,894.869,834.005,863.615,860.325,0.000,0.000,0
1507100838.919,842.230,819.200,845.520,838.940,0.000,0.000,0
1507100838.919,815.910,807.685,835.650,812.620,0.000,0.000,0
1507100838.919,842.230,820.845,852.100,835.650,0.000,0.000,0
1507100838.919,868.550,835.650,863.615,858.680,0.000,0.000,0
1507100839.008,857.035,827.425,855.390,852.100,0.000,0.000,0
1507100839.008,806.040,809.330,830.715,819.200,0.000,0.000,0
1507100839.008,814.265,809.330,835.650,829.070,0.000,0.000,0
1507100839.008,865.260,832.360,861.970,842.230,0.000,0.000,0
1507100839.008,876.775,829.070,855.390,861.970,0.000,0.000,0
1507100839.008,806.040,810.975,837.295,840.585,0.000,0.000,0
1507100839.008,804.395,804.395,835.650,824.135,0.000,0.000,0
1507100839.008,832.360,817.555,847.165,845.520,0.000,0.000,0
1507100839.008,871.840,835.650,868.550,852.100,0.000,0.000,0
1507100839.008,852.100,819.200,845.520,852.100,0.000,0.000,0
1507100839.008,796.170,802.750,827.425,819.200,0.000,0.000,0
1507100839.008,834.005,809.330,834.005,837.295,0.000,0.000,0
1507100839.008,884.999,827.425,857.035,858.680,0.000,0.000,0
1507100839.008,860.325,832.360,861.970,853.745,0.000,0.000,0
1507100839.008,802.750,810.975,834.005,840.585,0.000,0.000,0
1507100839.008,796.170,814.265,835.650,815.910,0.000,0.000,0
1507100839.071,848.810,827.425,855.390,837.295,0.000,0.000,0
1507100839.071,888.289,832.360,860.325,857.035,0.000,0.000,0
1507100839.071,842.230,812.620,840.585,845.520,0.000,0.000,0
1507100839.071,796.170,799.460,827.425,840.585,0.000,0.000,0
1507100839.071,822.490,815.910,845.520,847.165,0.000,0.000,0
1507100839.071,861.970,835.650,868.550,847.165,0.000,0.000,0
1507100839.071,861.970,825.780,855.390,845.520,0.000,0.000,0
1507100839.071,815.910,802.750,827.425,824.135,0.000,0.000,0
1507100839.071,822.490,809.330,834.005,817.555,0.000,0.000,0
1507100839.071,855.390,829.070,855.390,838.940,0.000,0.000,0
1507100839.071,875.130,832.360,863.615,848.810,0.000,0.000,0
1507100839.071,829.070,815.910,838.940,822.490,0.000,0.000,0
1507100839.071,815.910,797.815,824.135,824.135,0.000,0.000,0
1507100839.071,829.070,815.910,848.810,840.585,0.000,0.000,0
1507100839.071,875.130,837.295,868.550,845.520,0.000,0.000,0
1507100839.071,822.490,819.200,848.810,847.165,0.000,0.000,0
1507100839.136,783.011,806.040,832.360,812.620,0.000,0.000,0
1507100839.136,822.490,806.040,837.295,830.715,0.000,0.000,0
1507100839.136,861.970,825.780,860.325,840.585,0.000,0.000,0
1507100839.136,875.130,830.715,858.680,840.585,0.000,0.000,0
1507100839.136,815.910,804.395,829.070,827.425,0.000,0.000,0
1507100839.136,809.330,804.395,827.425,820.845,0.000,0.000,0
1507100839.136,835.650,819.200,848.810,847.165,0.000,0.000,0
1507100839.136,875.130,838.940,868.550,848.810,0.000,0.000,0
1507100839.136,848.810,824.135,847.165,843.875,0.000,0.000,0
1507100839.136,789.591,802.750,827.425,822.490,0.000,0.000,0
1507100839.136,829.070,806.040,838.940,838.940,0.000,0.000,0
1507100839.136,855.390,822.490,863.615,861.970,0.000,0.000,0
1507100839.136,848.810,824.135,861.970,848.810,0.000,0.000,0
1507100839.136,809.330,806.040,835.650,820.845,0.000,0.000,0
1507100839.136,815.910,802.750,834.005,825.780,0.000,0.000,0
1507100839.136,861.970,822.490,855.390,845.520,0.000,0.000,0
1507100839.136,873.485,830.715,865.260,853.745,0.000,0.000,0
1507100839.220,804.395,814.265,840.585,830.715,0.000,0.000,0
1507100839.220,773.141,797.815,825.780,820.845,0.000,0.000,0
1507100839.220,819.200,815.910,845.520,830.715,0.000,0.000,0
1507100839.220,871.840,829.070,861.970,857.035,0.000,0.000,0
1507100839.220,850.455,827.425,855.390,842.230,0.000,0.000,0
1507100839.220,789.591,797.815,825.780,817.555,0.000,0.000,0
1507100839.220,812.620,809.330,837.295,820.845,0.000,0.000,0
1507100839.220,838.940,835.650,863.615,843.875,0.000,0.000,0
1507100839.220,873.485,835.650,863.615,860.325,0.000,0.000,0
1507100839.220,809.330,820.845,840.585,824.135,0.000,0.000,0
1507100839.220,791.236,804.395,825.780,827.425,0.000,0.000,0
1507100839.220,835.650,822.490,852.100,842.230,0.000,0.000,0
1507100839.220,865.260,838.940,865.260,863.615,0.000,0.000,0
1507100839.220,845.520,819.200,847.165,853.745,0.000,0.000,0
1507100839.220,797.815,809.330,832.360,802.750,0.000,0.000,0
1507100839.220,812.620,812.620,837.295,830.715,0.000,0.000,0
1507100839.285,865.260,832.360,861.970,847.165,0.000,0.000,0
1507100839.285,868.550,832.360,858.680,850.455,0.000,0.000,0
1507100839.285,817.555,807.685,832.360,834.005,0.000,0.000,0
1507100839.285,806.040,807.685,830.715,812.620,0.000,0.000,0
1507100839.285,860.325,829.070,857.035,835.650,0.000,0.000,0
1507100839.285,883.354,830.715,858.680,861.970,0.000,0.000,0
1507100839.285,834.005,812.620,842.230,845.520,0.000,0.000,0
1507100839.285,791.236,806.040,832.360,822.490,0.000,0.000,0
1507100839.285,810.975,814.265,842.230,835.650,0.000,0.000,0
1507100839.285,863.615,835.650,868.550,840.585,0.000,0.000,0
1507100839.285,861.970,824.135,850.455,845.520,0.000,0.000,0
1507100839.285,799.460,804.395,825.780,819.200,0.000,0.000,0
1507100839.285,815.910,807.685,835.650,827.425,0.000,0.000,0
1507100839.285,848.810,829.070,860.325,843.875,0.000,0.000,0
1507100839.285,878.419,834.005,861.970,857.035,0.000,0.000,0
1507100839.285,814.265,815.910,838.940,829.070,0.000,0.000,0
1507100839.368,794.526,801.105,822.490,832.360,0.000,0.000,0
1507100839.368,847.165,822.490,847.165,840.585,0.000,0.000,0
1507100839.368,886.644,838.940,863.615,857.035,0.000,0.000,0
1507100839.368,853.745,822.490,845.520,855.390,0.000,0.000,0
1507100839.368,807.685,802.750,824.135,827.425,0.000,0.000,0
1507100839.368,834.005,806.040,834.005,837.295,0.000,0.000,0
1507100839.368,860.325,832.360,861.970,842.230,0.000,0.000,0
1507100839.368,860.325,834.005,858.680,850.455,0.000,0.000,0
1507100839.368,807.685,815.910,837.295,822.490,0.000,0.000,0
1507100839.368,807.685,807.685,829.070,819.200,0.000,0.000,0
1507100839.368,853.745,820.845,848.810,845.520,0.000,0.000,0
1507100839.368,866.905,838.940,863.615,855.390,0.000,0.000,0
1507100839.368,827.425,820.845,843.875,838.940,0.000,0.000,0
1507100839.368,781.366,801.105,824.135,817.555,0.000,0.000,0
1507100839.368,827.425,810.975,840.585,825.780,0.000,0.000,0
1507100839.368,880.064,832.360,861.970,848.810,0.000,0.000,0
1507100839.436,855.390,825.780,853.745,855.390,0.000,0.000,0
1507100839.436,806.040,806.040,829.070,827.425,0.000,0.000,0
1507100839.436,807.685,809.330,834.005,822.490,0.000,0.000,0
1507100839.436,857.035,824.135,857.035,834.005,0.000,0.000,0
1507100839.436,891.579,832.360,861.970,853.745,0.000,0.000,0
1507100839.436,837.295,815.910,842.230,837.295,0.000,0.000,0
1507100839.436,794.526,797.815,822.490,824.135,0.000,0.000,0
1507100839.436,822.490,815.910,843.875,838.940,0.000,0.000,0
1507100839.436,863.615,842.230,868.550,838.940,0.000,0.000,0
1507100839.436,857.035,830.715,853.745,843.875,0.000,0.000,0
1507100839.436,812.620,809.330,829.070,827.425,0.000,0.000,0
1507100839.436,832.360,812.620,835.650,835.650,0.000,0.000,0
1507100839.436,873.485,830.715,860.325,861.970,0.000,0.000,0
1507100839.436,878.419,834.005,861.970,850.455,0.000,0.000,0
1507100839.436,832.360,812.620,835.650,840.585,0.000,0.000,0
1507100839.436,814.265,807.685,832.360,824.135,0.000,0.000,0
1507100839.519,830.715,824.135,852.100,842.230,0.000,0.000,0
1507100839.519,863.615,837.295,866.905,857.035,0.000,0.000,0
1507100839.519,842.230,824.135,848.810,840.585,0.000,0.000,0
1507100839.519,807.685,804.395,825.780,830.715,0.000,0.000,0
1507100839.519,829.070,812.620,838.940,830.715,0.000,0.000,0
1507100839.519,880.064,830.715,858.680,865.260,0.000,0.000,0
1507100839.519,870.195,827.425,860.325,865.260,0.000,0.000,0
1507100839.519,810.975,807.685,832.360,838.940,0.000,0.000,0
1507100839.519,810.975,807.685,830.715,827.425,0.000,0.000,0
1507100839.519,855.390,834.005,857.035,834.005,0.000,0.000,0
1507100839.519,863.615,834.005,858.680,858.680,0.000,0.000,0
1507100839.519,825.780,810.975,840.585,847.165,0.000,0.000,0
1507100839.519,796.170,802.750,829.070,824.135,0.000,0.000,0
1507100839.519,825.780,817.555,842.230,832.360,0.000,0.000,0
1507100839.519,878.419,834.005,860.325,853.745,0.000,0.000,0
1507100839.519,850.455,825.780,852.100,853.745,0.000,0.000,0
1507100839.588,810.975,802.750,830.715,827.425,0.000,0.000,0
1507100839.588,824.135,804.395,835.650,830.715,0.000,0.000,0
1507100839.588,870.195,829.070,858.680,847.165,0.000,0.000,0
1507100839.588,876.775,832.360,861.970,860.325,0.000,0.000,0
1507100839.588,814.265,809.330,838.940,827.425,0.000,0.000,0
1507100839.588,801.105,804.395,829.070,815.910,0.000,0.000,0
1507100839.588,827.425,819.200,848.810,832.360,0.000,0.000,0
1507100839.588,876.775,830.715,858.680,858.680,0.000,0.000,0
1507100839.588,837.295,820.845,845.520,847.165,0.000,0.000,0
1507100839.588,791.236,804.395,830.715,814.265,0.000,0.000,0
1507100839.588,827.425,814.265,840.585,830.715,0.000,0.000,0
1507100839.588,857.035,838.940,866.905,850.455,0.000,0.000,0
1507100839.588,857.035,834.005,858.680,852.100,0.000,0.000,0
1507100839.588,797.815,809.330,832.360,832.360,0.000,0.000,0
1507100839.588,794.526,807.685,834.005,815.910,0.000,0.000,0
1507100839.588,830.715,825.780,853.745,835.650,0.000,0.000,0
1507100839.653,873.485,835.650,863.615,866.905,0.000,0.000,0
1507100839.653,838.940,817.555,843.875,840.585,0.000,0.000,0
1507100839.653,814.265,801.105,827.425,827.425,0.000,0.000,0
1507100839.653,840.585,819.200,842.230,837.295,0.000,0.000,0
1507100839.653,852.100,834.005,861.970,861.970,0.000,0.000,0
1507100839.653,852.100,832.360,852.100,855.390,0.000,0.000,0
1507100839.653,810.975,804.395,825.780,837.295,0.000,0.000,0
1507100839.653,807.685,804.395,835.650,830.715,0.000,0.000,0
1507100839.653,847.165,830.715,861.970,827.425,0.000,0.000,0
1507100839.653,857.035,832.360,861.970,843.875,0.000,0.000,0
1507100839.653,810.975,809.330,838.940,838.940,0.000,0.000,0
1507100839.653,801.105,797.815,829.070,822.490,0.000,0.000,0
1507100839.653,845.520,814.265,845.520,840.585,0.000,0.000,0
1507100839.653,868.550,837.295,866.905,858.680,0.000,0.000,0
1507100839.653,838.940,825.780,853.745,852.100,0.000,0.000,0
1507100839.653,814.265,802.750,827.425,832.360,0.000,0.000,0
1507100839.734,825.780,807.685,837.295,838.940,0.000,0.000,0
1507100839.734,855.390,829.070,858.680,842.230,0.000,0.000,0
1507100839.734,871.840,830.715,857.035,857.035,0.000,0.000,0
1507100839.734,809.330,809.330,830.715,829.070,0.000,0.000,0
1507100839.734,806.040,799.460,825.780,824.135,0.000,0.000,0
1507100839.734,835.650,814.265,847.165,850.455,0.000,0.000,0
1507100839.734,855.390,832.360,866.905,853.745,0.000,0.000,0
1507100839.734,837.295,815.910,843.875,847.165,0.000,0.000,0
1507100839.734,794.526,802.750,824.135,820.845,0.000,0.000,0
1507100839.734,830.715,815.910,835.650,824.135,0.000,0.000,0
1507100839.734,868.550,827.425,853.745,861.970,0.000,0.000,0
1507100839.734,857.035,829.070,852.100,858.680,0.000,0.000,0
1507100839.734,797.815,806.040,829.070,830.715,0.000,0.000,0
1507100839.734,807.685,802.750,827.425,817.555,0.000,0.000,0
1507100839.734,838.940,824.135,852.100,843.875,0.000,0.000,0
1507100839.734,868.550,832.360,863.615,860.325,0.000,0.000,0
1507100839.734,827.425,814.265,842.230,847.165,0.000,0.000,0
1507100839.801,801.105,799.460,827.425,819.200,0.000,0.000,0
1507100839.801,834.005,812.620,845.520,835.650,0.000,0.000,0
1507100839.801,896.514,832.360,861.970,853.745,0.000,0.000,0
1507100839.801,860.325,827.425,850.455,845.520,0.000,0.000,0
1507100839.801,807.685,807.685,825.780,829.070,0.000,0.000,0
1507100839.801,820.845,810.975,834.005,827.425,0.000,0.000,0
1507100839.801,857.035,822.490,852.100,866.905,0.000,0.000,0
1507100839.801,876.775,832.360,860.325,855.390,0.000,0.000,0
1507100839.801,824.135,815.910,835.650,830.715,0.000,0.000,0
1507100839.801,801.105,802.750,827.425,824.135,0.000,0.000,0
1507100839.801,834.005,824.135,852.100,830.715,0.000,0.000,0
1507100839.801,880.064,830.715,860.325,860.325,0.000,0.000,0
1507100839.801,834.005,820.845,847.165,848.810,0.000,0.000,0
1507100839.801,794.526,802.750,824.135,822.490,0.000,0.000,0
1507100839.801,827.425,806.040,832.360,835.650,0.000,0.000,0
1507100839.801,870.195,827.425,858.680,868.550,0.000,0.000,0
1507100839.884,866.905,835.650,863.615,848.810,0.000,0.000,0
1507100839.884,837.295,799.460,827.425,848.810,0.000,0.000,0
1507100839.884,797.815,807.685,834.005,825.780,0.000,0.000,0
1507100839.884,843.875,820.845,848.810,843.875,0.000,0.000,0
1507100839.884,886.644,825.780,858.680,860.325,0.000,0.000,0
1507100839.884,830.715,814.265,840.585,838.940,0.000,0.000,0
1507100839.884,801.105,799.460,829.070,815.910,0.000,0.000,0
1507100839.884,820.845,810.975,838.940,830.715,0.000,0.000,0
1507100839.884,860.325,834.005,865.260,848.810,0.000,0.000,0
1507100839.884,857.035,827.425,855.390,847.165,0.000,0.000,0
1507100839.884,814.265,802.750,827.425,827.425,0.000,0.000,0
1507100839.884,807.685,802.750,830.715,824.135,0.000,0.000,0
1507100839.884,843.875,825.780,855.390,843.875,0.000,0.000,0
1507100839.884,880.064,834.005,860.325,852.100,0.000,0.000,0
1507100839.884,824.135,810.975,834.005,837.295,0.000,0.000,0
1507100839.884,807.685,801.105,827.425,824.135,0.000,0.000,0
1507100839.952,835.650,820.845,848.810,830.715,0.000,0.000,0
1507100839.952,871.840,835.650,865.260,855.390,0.000,0.000,0
1507100839.952,850.455,830.715,855.390,842.230,0.000,0.000,0
1507100839.952,806.040,802.750,827.425,830.715,0.000,0.000,0
1507100839.952,822.490,804.395,837.295,843.875,0.000,0.000,0
1507100839.952,873.485,829.070,861.970,855.390,0.000,0.000,0
1507100839.952,871.840,827.425,855.390,861.970,0.000,0.000,0
1507100839.952,817.555,807.685,827.425,837.295,0.000,0.000,0
1507100839.952,809.330,801.105,827.425,820.845,0.000,0.000,0
1507100839.952,843.875,822.490,848.810,835.650,0.000,0.000,0
1507100839.952,883.354,834.005,861.970,855.390,0.000,0.000,0
1507100839.952,832.360,825.780,848.810,829.070,0.000,0.000,0
1507100839.952,807.685,804.395,822.490,829.070,0.000,0.000,0
1507100839.952,822.490,815.910,840.585,827.425,0.000,0.000,0
1507100839.952,875.130,835.650,863.615,847.165,0.000,0.000,0
1507100839.952,870.195,829.070,855.390,840.585,0.000,0.000,0
1507100840.017,817.555,806.040,830.715,825.780,0.000,0.000,0
1507100840.017,807.685,806.040,832.360,834.005,0.000,0.000,0
1507100840.017,857.035,830.715,855.390,840.585,0.000,0.000,0
1507100840.017,896.514,835.650,858.680,858.680,0.000,0.000,0
1507100840.017,840.585,815.910,837.295,838.940,0.000,0.000,0
1507100840.017,814.265,801.105,819.200,827.425,0.000,0.000,0
1507100840.017,824.135,810.975,838.940,848.810,0.000,0.000,0
1507100840.017,860.325,834.005,861.970,850.455,0.000,0.000,0
1507100840.017,850.455,825.780,847.165,843.875,0.000,0.000,0
1507100840.017,804.395,806.040,829.070,820.845,0.000,0.000,0
1507100840.017,810.975,810.975,835.650,822.490,0.000,0.000,0
1507100840.017,860.325,830.715,857.035,845.520,0.000,0.000,0
1507100840.017,886.644,835.650,861.970,850.455,0.000,0.000,0
1507100840.017,830.715,806.040,829.070,848.810,0.000,0.000,0
1507100840.017,794.526,799.460,824.135,829.070,0.000,0.000,0
1507100840.017,837.295,820.845,845.520,847.165,0.000,0.000,0
1507100840.102,873.485,834.005,861.970,860.325,0.000,0.000,0
1507100840.102,857.035,824.135,850.455,835.650,0.000,0.000,0
1507100840.102,812.620,802.750,824.135,820.845,0.000,0.000,0
1507100840.102,819.200,817.555,837.295,819.200,0.000,0.000,0
1507100840.102,860.325,834.005,855.390,847.165,0.000,0.000,0
1507100840.102,871.840,835.650,855.390,865.260,0.000,0.000,0
1507100840.102,814.265,817.555,835.650,840.585,0.000,0.000,0
1507100840.102,822.490,802.750,830.715,840.585,0.000,0.000,0
1507100840.102,853.745,830.715,858.680,832.360,0.000,0.000,0
1507100840.102,876.775,832.360,860.325,866.905,0.000,0.000,0
1507100840.102,842.230,815.910,845.520,848.810,0.000,0.000,0
1507100840.102,812.620,804.395,830.715,827.425,0.000,0.000,0
1507100840.102,835.650,822.490,847.165,827.425,0.000,0.000,0
1507100840.102,878.419,837.295,863.615,857.035,0.000,0.000,0
1507100840.102,863.615,829.070,853.745,857.035,0.000,0.000,0
1507100840.102,796.170,809.330,834.005,827.425,0.000,0.000,0
1507100840.168,817.555,810.975,837.295,829.070,0.000,0.000,0
1507100840.168,850.455,830.715,861.970,845.520,0.000,0.000,0
1507100840.168,868.550,838.940,865.260,848.810,0.000,0.000,0
1507100840.168,847.165,814.265,837.295,848.810,0.000,0.000,0
1507100840.168,796.170,807.685,830.715,827.425,0.000,0.000,0
1507100840.168,848.810,824.135,850.455,842.230,0.000,0.000,0
1507100840.168,899.804,834.005,863.615,868.550,0.000,0.000,0
1507100840.168,858.680,825.780,847.165,857.035,0.000,0.000,0
1507100840.168,814.265,806.040,827.425,822.490,0.000,0.000,0
1507100840.168,824.135,819.200,838.940,829.070,0.000,0.000,0
1507100840.168,855.390,832.360,861.970,857.035,0.000,0.000,0
1507100840.168,871.840,837.295,863.615,857.035,0.000,0.000,0
1507100840.168,822.490,810.975,834.005,838.940,0.000,0.000,0
1507100840.168,806.040,807.685,830.715,834.005,0.000,0.000,0
1507100840.168,835.650,829.070,852.100,832.360,0.000,0.000,0
1507100840.168,888.289,835.650,863.615,855.390,0.000,0.000,0
1507100840.234,857.035,819.200,843.875,848.810,0.000,0.000,0
1507100840.234,801.105,799.460,825.780,817.555,0.000,0.000,0
1507100840.234,827.425,815.910,842.230,834.005,0.000,0.000,0
1507100840.234,878.419,830.715,858.680,853.745,0.000,0.000,0
1507100840.234,866.905,834.005,857.035,847.165,0.000,0.000,0
1507100840.234,812.620,807.685,829.070,835.650,0.000,0.000,0
1507100840.234,814.265,802.750,832.360,825.780,0.000,0.000,0
1507100840.234,837.295,830.715,860.325,835.650,0.000,0.000,0
1507100840.234,866.905,835.650,860.325,842.230,0.000,0.000,0
1507100840.234,834.005,812.620,838.940,832.360,0.000,0.000,0
1507100840.234,809.330,801.105,825.780,822.490,0.000,0.000,0
1507100840.234,843.875,814.265,840.585,838.940,0.000,0.000,0
1507100840.234,875.130,829.070,858.680,847.165,0.000,0.000,0
1507100840.234,866.905,824.135,852.100,835.650,0.000,0.000,0
1507100840.234,783.011,799.460,824.135,822.490,0.000,0.000,0
1507100840.234,797.815,799.460,830.715,825.780,0.000,0.000,0
1507100840.323,852.100,829.070,860.325,842.230,0.000,0.000,0
1507100840.323,865.260,832.360,860.325,855.390,0.000,0.000,0
1507100840.323,822.490,812.620,834.005,834.005,0.000,0.000,0
1507100840.323,810.975,806.040,830.715,819.200,0.000,0.000,0
1507100840.323,852.100,817.555,845.520,852.100,0.000,0.000,0
1507100840.323,870.195,834.005,865.260,855.390,0.000,0.000,0
1507100840.323,860.325,822.490,847.165,840.585,0.000,0.000,0
1507100840.323,801.105,801.105,822.490,829.070,0.000,0.000,0
1507100840.323,799.460,814.265,837.295,809.330,0.000,0.000,0
1507100840.323,866.905,830.715,855.390,845.520,0.000,0.000,0
1507100840.323,855.390,832.360,853.745,848.810,0.000,0.000,0
1507100840.323,812.620,804.395,827.425,838.940,0.000,0.000,0
1507100840.323,809.330,802.750,824.135,837.295,0.000,0.000,0
1507100840.323,847.165,827.425,852.100,843.875,0.000,0.000,0
1507100840.323,873.485,835.650,861.970,866.905,0.000,0.000,0
1507100840.323,855.390,814.265,838.940,853.745,0.000,0.000,0
1507100840.323,784.656,802.750,824.135,815.910,0.000,0.000,0
1507100840.381,819.200,820.845,845.520,814.265,0.000,0.000,0
1507100840.381,855.390,835.650,858.680,834.005,0.000,0.000,0
1507100840.381,830.715,822.490,847.165,847.165,0.000,0.000,0
1507100840.381,801.105,802.750,829.070,825.780,0.000,0.000,0
1507100840.381,812.620,802.750,829.070,827.425,0.000,0.000,0
1507100840.381,860.325,827.425,853.745,845.520,0.000,0.000,0
1507100840.381,883.354,832.360,855.390,858.680,0.000,0.000,0
1507100840.381,819.200,812.620,835.650,843.875,0.000,0.000,0
1507100840.381,796.170,804.395,829.070,817.555,0.000,0.000,0
1507100840.381,820.845,819.200,848.810,822.490,0.000,0.000,0
1507100840.381,884.999,827.425,861.970,852.100,0.000,0.000,0
1507100840.381,860.325,819.200,843.875,843.875,0.000,0.000,0
1507100840.381,796.170,799.460,822.490,830.715,0.000,0.000,0
1507100840.381,806.040,815.910,837.295,822.490,0.000,0.000,0
1507100840.381,860.325,827.425,855.390,857.035,0.000,0.000,0
1507100840.381,866.905,827.425,855.390,861.970,0.000,0.000,0
1507100840.468,817.555,807.685,838.940,834.005,0.000,0.000,0
1507100840.468,809.330,802.750,832.360,820.845,0.000,0.000,0
1507100840.468,827.425,819.200,852.100,842.230,0.000,0.000,0
1507100840.468,873.485,825.780,866.905,866.905,0.000,0.000,0
1507100840.468,848.810,810.975,843.875,850.455,0.000,0.000,0
1507100840.468,804.395,801.105,830.715,819.200,0.000,0.000,0
1507100840.468,834.005,809.330,842.230,827.425,0.000,0.000,0
1507100840.468,886.644,825.780,860.325,857.035,0.000,0.000,0
1507100840.468,868.550,825.780,855.390,852.100,0.000,0.000,0
1507100840.468,801.105,797.815,827.425,837.295,0.000,0.000,0
1507100840.468,802.750,806.040,834.005,825.780,0.000,0.000,0
1507100840.468,855.390,830.715,860.325,840.585,0.000,0.000,0
1507100840.468,878.419,837.295,865.260,858.680,0.000,0.000,0
1507100840.468,840.585,814.265,838.940,845.520,0.000,0.000,0
1507100840.468,801.105,799.460,827.425,822.490,0.000,0.000,0
1507100840.468,829.070,820.845,845.520,835.650,0.000,0.000,0
1507100840.532,894.869,835.650,860.325,853.745,0.000,0.000,0
1507100840.532,861.970,825.780,848.810,845.520,0.000,0.000,0
1507100840.532,812.620,806.040,829.070,824.135,0.000,0.000,0
1507100840.532,829.070,812.620,840.585,829.070,0.000,0.000,0
1507100840.532,865.260,827.425,858.680,858.680,0.000,0.000,0
1507100840.532,901.449,835.650,863.615,861.970,0.000,0.000,0
1507100840.532,832.360,809.330,835.650,848.810,0.000,0.000,0
1507100840.532,806.040,797.815,825.780,830.715,0.000,0.000,0
1507100840.532,842.230,819.200,855.390,830.715,0.000,0.000,0
1507100840.532,871.840,830.715,866.905,860.325,0.000,0.000,0
1507100840.532,838.940,820.845,853.745,847.165,0.000,0.000,0
1507100840.532,792.881,801.105,829.070,827.425,0.000,0.000,0
1507100840.532,832.360,812.620,847.165,827.425,0.000,0.000,0
1507100840.532,881.709,832.360,861.970,845.520,0.000,0.000,0
1507100840.532,875.130,824.135,855.390,853.745,0.000,0.000,0
1507100840.532,806.040,807.685,837.295,832.360,0.000,0.000,0
1507100840.617,804.395,801.105,830.715,830.715,0.000,0.000,0
1507100840.617,852.100,824.135,858.680,848.810,0.000,0.000,0
1507100840.617,888.289,837.295,868.550,855.390,0.000,0.000,0
1507100840.617,848.810,815.910,843.875,842.230,0.000,0.000,0
1507100840.617,794.526,799.460,825.780,822.490,0.000,0.000,0
1507100840.617,806.040,804.395,840.585,832.360,0.000,0.000,0
1507100840.617,860.325,825.780,866.905,853.745,0.000,0.000,0
1507100840.617,848.810,829.070,857.035,857.035,0.000,0.000,0
1507100840.617,797.815,802.750,830.715,830.715,0.000,0.000,0
1507100840.617,814.265,814.265,838.940,814.265,0.000,0.000,0
1507100840.617,860.325,824.135,852.100,843.875,0.000,0.000,0
1507100840.617,888.289,829.070,861.970,858.680,0.000,0.000,0
1507100840.617,834.005,809.330,837.295,837.295,0.000,0.000,0
1507100840.617,807.685,802.750,829.070,827.425,0.000,0.000,0
1507100840.617,832.360,817.555,845.520,857.035,0.000,0.000,0
1507100840.617,865.260,829.070,863.615,857.035,0.000,0.000,0
1507100840.683,847.165,824.135,852.100,847.165,0.000,0.000,0
1507100840.683,792.881,804.395,825.780,829.070,0.000,0.000,0
1507100840.683,815.910,815.910,840.585,809.330,0.000,0.000,0
1507100840.683,863.615,834.005,860.325,847.165,0.000,0.000,0
1507100840.683,884.999,827.425,853.745,860.325,0.000,0.000,0
1507100840.683,827.425,814.265,835.650,830.715,0.000,0.000,0
1507100840.683,825.780,804.395,827.425,830.715,0.000,0.000,0
1507100840.683,855.390,819.200,848.810,853.745,0.000,0.000,0
1507100840.683,880.064,827.425,857.035,878.419,0.000,0.000,0
1507100840.683,820.845,820.845,845.520,842.230,0.000,0.000,0
1507100840.683,791.236,802.750,829.070,807.685,0.000,0.000,0
1507100840.683,822.490,810.975,840.585,822.490,0.000,0.000,0
1507100840.683,873.485,829.070,860.325,847.165,0.000,0.000,0
1507100840.683,865.260,822.490,848.810,853.745,0.000,0.000,0
1507100840.683,797.815,804.395,824.135,829.070,0.000,0.000,0
1507100840.683,806.040,809.330,832.360,814.265,0.000,0.000,0
1507100840.748,840.585,820.845,852.100,840.585,0.000,0.000,0
1507100840.748,863.615,825.780,852.100,852.100,0.000,0.000,0
1507100840.748,820.845,814.265,835.650,832.360,0.000,0.000,0
1507100840.748,797.815,802.750,824.135,809.330,0.000,0.000,0
1507100840.748,835.650,817.555,840.585,827.425,0.000,0.000,0
1507100840.748,875.130,834.005,861.970,857.035,0.000,0.000,0
1507100840.748,843.875,820.845,847.165,861.970,0.000,0.000,0
1507100840.748,802.750,802.750,827.425,832.360,0.000,0.000,0
1507100840.748,820.845,814.265,835.650,825.780,0.000,0.000,0
1507100840.748,870.195,830.715,853.745,857.035,0.000,0.000,0
1507100840.748,888.289,837.295,861.970,842.230,0.000,0.000,0
1507100840.748,837.295,810.975,832.360,838.940,0.000,0.000,0
1507100840.748,807.685,809.330,832.360,822.490,0.000,0.000,0
1507100840.748,848.810,820.845,843.875,847.165,0.000,0.000,0
1507100840.748,883.354,830.715,855.390,863.615,0.000,0.000,0
1507100840.748,848.810,825.780,845.520,837.295,0.000,0.000,0
1507100840.830,809.330,801.105,824.135,835.650,0.000,0.000,0
1507100840.830,829.070,817.555,843.875,834.005,0.000,0.000,0
1507100840.830,880.064,832.360,858.680,863.615,0.000,0.000,0
1507100840.830,866.905,827.425,853.745,858.680,0.000,0.000,0
1507100840.830,807.685,809.330,832.360,822.490,0.000,0.000,0
1507100840.830,801.105,802.750,827.425,822.490,0.000,0.000,0
1507100840.830,837.295,825.780,855.390,830.715,0.000,0.000,0
1507100840.830,876.775,834.005,860.325,857.035,0.000,0.000,0
1507100840.830,824.135,822.490,845.520,835.650,0.000,0.000,0
1507100840.830,799.460,807.685,829.070,819.200,0.000,0.000,0
1507100840.830,817.555,814.265,842.230,832.360,0.000,0.000,0
1507100840.830,875.130,825.780,861.970,852.100,0.000,0.000,0
1507100840.830,860.325,824.135,855.390,848.810,0.000,0.000,0
1507100840.830,802.750,806.040,829.070,822.490,0.000,0.000,0
1507100840.830,824.135,806.040,834.005,832.360,0.000,0.000,0
1507100840.830,845.520,830.715,857.035,847.165,0.000,0.000,0
1507100840.899,868.550,834.005,863.615,860.325,0.000,0.000,0
1507100840.899,832.360,814.265,840.585,847.165,0.000,0.000,0
1507100840.899,799.460,809.330,832.360,819.200,0.000,0.000,0
1507100840.899,858.680,815.910,845.520,838.940,0.000,0.000,0
1507100840.899,898.159,822.490,855.390,863.615,0.000,0.000,0
1507100840.899,842.230,822.490,850.455,840.585,0.000,0.000,0
1507100840.899,806.040,806.040,830.715,825.780,0.000,0.000,0
1507100840.899,815.910,809.330,835.650,832.360,0.000,0.000,0
1507100840.899,858.680,834.005,861.970,842.230,0.000,0.000,0
1507100840.899,878.419,829.070,858.680,850.455,0.000,0.000,0
1507100840.899,809.330,807.685,832.360,835.650,0.000,0.000,0
1507100840.899,802.750,804.395,835.650,809.330,0.000,0.000,0
1507100840.899,845.520,810.975,850.455,845.520,0.000,0.000,0
1507100840.899,884.999,827.425,866.905,870.195,0.000,0.000,0
1507100840.899,838.940,815.910,850.455,838.940,0.000,0.000,0
1507100840.899,806.040,802.750,829.070,809.330,0.000,0.000,0
1507100840.899,829.070,810.975,840.585,834.005,0.000,0.000,0
1507100840.981,868.550,824.135,861.970,850.455,0.000,0.000,0
1507100840.981,861.970,825.780,858.680,842.230,0.000,0.000,0
1507100840.981,809.330,802.750,834.005,820.845,0.000,0.000,0
1507100840.981,809.330,806.040,834.005,817.555,0.000,0.000,0
1507100840.981,848.810,825.780,852.100,840.585,0.000,0.000,0
1507100840.981,888.289,825.780,858.680,875.130,0.000,0.000,0
1507100840.981,835.650,817.555,845.520,837.295,0.000,0.000,0
1507100840.981,802.750,806.040,830.715,814.265,0.000,0.000,0
1507100840.981,835.650,812.620,845.520,840.585,0.000,0.000,0
1507100840.981,875.130,832.360,860.325,860.325,0.000,0.000,0
1507100840.981,855.390,819.200,848.810,855.390,0.000,0.000,0
1507100840.981,809.330,801.105,829.070,824.135,0.000,0.000,0
1507100840.981,809.330,812.620,837.295,820.845,0.000,0.000,0
1507100840.981,868.550,834.005,860.325,842.230,0.000,0.000,0
1507100840.981,881.709,830.715,858.680,857.035,0.000,0.000,0
1507100840.981,822.490,812.620,837.295,830.715,0.000,0.000,0
1507100841.049,797.815,806.040,834.005,830.715,0.000,0.000,0
1507100841.049,847.165,815.910,848.810,850.455,0.000,0.000,0
1507100841.049,881.709,834.005,861.970,861.970,0.000,0.000,0
1507100841.049,868.550,815.910,843.875,850.455,0.000,0.000,0
1507100841.049,802.750,804.395,824.135,830.715,0.000,0.000,0
1507100841.049,835.650,819.200,838.940,829.070,0.000,0.000,0
1507100841.049,883.354,830.715,860.325,848.810,0.000,0.000,0
1507100841.049,863.615,827.425,853.745,865.260,0.000,0.000,0
1507100841.049,807.685,806.040,834.005,820.845,0.000,0.000,0
1507100841.049,794.526,806.040,835.650,812.620,0.000,0.000,0
1507100841.049,852.100,819.200,853.745,838.940,0.000,0.000,0
1507100841.049,883.354,829.070,868.550,843.875,0.000,0.000,0
1507100841.049,832.360,810.975,840.585,843.875,0.000,0.000,0
1507100841.049,797.815,809.330,829.070,817.555,0.000,0.000,0
1507100841.049,837.295,817.555,843.875,822.490,0.000,0.000,0
1507100841.049,886.644,824.135,860.325,853.745,0.000,0.000,0
1507100841.114,853.745,819.200,855.390,847.165,0.000,0.000,0
1507100841.114,791.236,796.170,829.070,824.135,0.000,0.000,0
1507100841.114,806.040,807.685,838.940,806.040,0.000,0.000,0
1507100841.114,858.680,827.425,857.035,825.780,0.000,0.000,0
1507100841.114,880.064,822.490,860.325,852.100,0.000,0.000,0
1507100841.114,815.910,807.685,837.295,832.360,0.000,0.000,0
1507100841.114,817.555,799.460,824.135,832.360,0.000,0.000,0
1507100841.114,850.455,812.620,848.810,840.585,0.000,0.000,0
1507100841.114,896.514,835.650,863.615,857.035,0.000,0.000,0
1507100841.114,863.615,824.135,847.165,857.035,0.000,0.000,0
1507100841.114,799.460,807.685,829.070,819.200,0.000,0.000,0
1507100841.114,835.650,809.330,834.005,825.780,0.000,0.000,0
1507100841.114,880.064,825.780,855.390,847.165,0.000,0.000,0
1507100841.114,866.905,829.070,857.035,848.810,0.000,0.000,0
1507100841.114,797.815,810.975,832.360,825.780,0.000,0.000,0
1507100841.114,784.656,801.105,825.780,824.135,0.000,0.000,0
1507100841.197,845.520,817.555,852.100,835.650,0.000,0.000,0
1507100841.197,878.419,835.650,861.970,848.810,0.000,0.000,0
1507100841.197,850.455,819.200,840.585,840.585,0.000,0.000,0
1507100841.197,812.620,806.040,827.425,817.555,0.000,0.000,0
1507100841.197,843.875,815.910,838.940,837.295,0.000,0.000,0
1507100841.197,893.224,829.070,858.680,865.260,0.000,0.000,0
1507100841.197,871.840,834.005,858.680,848.810,0.000,0.000,0
1507100841.197,815.910,806.040,832.360,834.005,0.000,0.000,0
1507100841.198,822.490,796.170,825.780,845.520,0.000,0.000,0
1507100841.198,855.390,824.135,853.745,850.455,0.000,0.000,0
1507100841.198,881.709,830.715,858.680,865.260,0.000,0.000,0
1507100841.198,820.845,814.265,837.295,842.230,0.000,0.000,0
1507100841.198,791.236,806.040,830.715,822.490,0.000,0.000,0
1507100841.198,847.165,812.620,842.230,848.810,0.000,0.000,0
1507100841.198,896.514,832.360,861.970,860.325,0.000,0.000,0
1507100841.198,863.615,825.780,850.455,852.100,0.000,0.000,0
1507100841.262,807.685,799.460,825.780,825.780,0.000,0.000,0
1507100841.262,822.490,806.040,827.425,832.360,0.000,0.000,0
1507100841.262,852.100,827.425,850.455,840.585,0.000,0.000,0
1507100841.262,883.354,832.360,857.035,848.810,0.000,0.000,0
1507100841.262,817.555,812.620,830.715,842.230,0.000,0.000,0
1507100841.262,814.265,801.105,825.780,815.910,0.000,0.000,0
1507100841.262,857.035,824.135,845.520,832.360,0.000,0.000,0
1507100841.262,888.289,835.650,853.745,863.615,0.000,0.000,0
1507100841.262,830.715,822.490,843.875,840.585,0.000,0.000,0
1507100841.262,799.460,806.040,824.135,834.005,0.000,0.000,0
1507100841.262,842.230,810.975,837.295,835.650,0.000,0.000,0
1507100841.262,875.130,835.650,860.325,848.810,0.000,0.000,0
1507100841.262,876.775,830.715,855.390,865.260,0.000,0.000,0
1507100841.262,809.330,807.685,832.360,838.940,0.000,0.000,0
1507100841.262,817.555,801.105,829.070,835.650,0.000,0.000,0
1507100841.262,865.260,824.135,848.810,858.680,0.000,0.000,0
1507100841.332,857.035,835.650,860.325,860.325,0.000,0.000,0
1507100841.332,829.070,810.975,838.940,852.100,0.000,0.000,0
1507100841.332,781.366,804.395,830.715,819.200,0.000,0.000,0
1507100841.332,837.295,817.555,842.230,840.585,0.000,0.000,0
1507100841.332,886.644,835.650,861.970,863.615,0.000,0.000,0
1507100841.332,870.195,827.425,848.810,852.100,0.000,0.000,0
1507100841.332,806.040,801.105,824.135,834.005,0.000,0.000,0
1507100841.332,812.620,809.330,837.295,829.070,0.000,0.000,0
1507100841.332,853.745,825.780,853.745,860.325,0.000,0.000,0
1507100841.332,860.325,843.875,860.325,855.390,0.000,0.000,0
1507100841.332,824.135,817.555,834.005,834.005,0.000,0.000,0
1507100841.332,810.975,802.750,820.845,822.490,0.000,0.000,0
1507100841.332,837.295,825.780,845.520,830.715,0.000,0.000,0
1507100841.332,876.775,837.295,861.970,845.520,0.000,0.000,0
1507100841.332,857.035,829.070,847.165,837.295,0.000,0.000,0
1507100841.332,802.750,809.330,824.135,815.910,0.000,0.000,0
1507100841.413,820.845,819.200,838.940,822.490,0.000,0.000,0
1507100841.413,876.775,834.005,857.035,850.455,0.000,0.000,0
1507100841.413,898.159,834.005,857.035,860.325,0.000,0.000,0
1507100841.413,814.265,814.265,832.360,835.650,0.000,0.000,0
1507100841.413,817.555,801.105,825.780,838.940,0.000,0.000,0
1507100841.413,848.810,822.490,850.455,843.875,0.000,0.000,0
1507100841.413,858.680,840.585,865.260,842.230,0.000,0.000,0
1507100841.413,843.875,820.845,843.875,842.230,0.000,0.000,0
1507100841.413,794.526,804.395,822.490,827.425,0.000,0.000,0
1507100841.413,832.360,814.265,838.940,848.810,0.000,0.000,0
1507100841.413,889.934,829.070,858.680,870.195,0.000,0.000,0
1507100841.413,875.130,834.005,855.390,852.100,0.000,0.000,0
1507100841.413,796.170,810.975,830.715,827.425,0.000,0.000,0
1507100841.413,812.620,809.330,830.715,822.490,0.000,0.000,0
1507100841.413,860.325,825.780,850.455,842.230,0.000,0.000,0
1507100841.413,883.354,830.715,857.035,863.615,0.000,0.000,0
1507100841.482,835.650,817.555,840.585,840.585,0.000,0.000,0
1507100841.482,810.975,807.685,825.780,825.780,0.000,0.000,0
1507100841.482,838.940,820.845,842.230,840.585,0.000,0.000,0
1507100841.482,881.709,837.295,857.035,863.615,0.000,0.000,0
1507100841.482,870.195,825.780,845.520,842.230,0.000,0.000,0
1507100841.482,792.881,806.040,827.425,810.975,0.000,0.000,0
1507100841.482,825.780,812.620,834.005,822.490,0.000,0.000,0
1507100841.482,857.035,827.425,853.745,835.650,0.000,0.000,0
1507100841.482,861.970,837.295,863.615,847.165,0.000,0.000,0
1507100841.482,817.555,815.910,837.295,830.715,0.000,0.000,0
1507100841.482,806.040,802.750,830.715,815.910,0.000,0.000,0
1507100841.482,853.745,819.200,847.165,840.585,0.000,0.000,0
1507100841.482,880.064,830.715,857.035,858.680,0.000,0.000,0
1507100841.482,842.230,824.135,843.875,847.165,0.000,0.000,0
1507100841.482,796.170,809.330,830.715,819.200,0.000,0.000,0
1507100841.482,830.715,814.265,837.295,830.715,0.000,0.000,0
1507100841.482,875.130,830.715,857.035,858.680,0.000,0.000,0
1507100841.568,873.485,832.360,857.035,847.165,0.000,0.000,0
1507100841.568,810.975,812.620,832.360,824.135,0.000,0.000,0
1507100841.568,817.555,804.395,829.070,825.780,0.000,0.000,0
1507100841.568,843.875,825.780,850.455,840.585,0.000,0.000,0
1507100841.568,873.485,829.070,857.035,866.905,0.000,0.000,0
1507100841.568,832.360,812.620,840.585,843.875,0.000,0.000,0
1507100841.568,794.526,806.040,829.070,817.555,0.000,0.000,0
1507100841.568,832.360,817.555,840.585,829.070,0.000,0.000,0
1507100841.568,868.550,835.650,863.615,835.650,0.000,0.000,0
1507100841.568,860.325,829.070,850.455,838.940,0.000,0.000,0
1507100841.568,812.620,801.105,825.780,812.620,0.000,0.000,0
1507100841.568,807.685,804.395,830.715,812.620,0.000,0.000,0
1507100841.568,852.100,829.070,852.100,825.780,0.000,0.000,0
1507100841.568,871.840,832.360,857.035,840.585,0.000,0.000,0
1507100841.568,817.555,814.265,834.005,824.135,0.000,0.000,0
1507100841.568,822.490,796.170,819.200,812.620,0.000,0.000,0
1507100841.629,832.360,819.200,843.875,827.425,0.000,0.000,0
1507100841.629,871.840,834.005,857.035,853.745,0.000,0.000,0
1507100841.629,855.390,812.620,842.230,847.165,0.000,0.000,0
1507100841.629,810.975,792.881,822.490,830.715,0.000,0.000,0
1507100841.629,810.975,802.750,835.650,825.780,0.000,0.000,0
1507100841.629,837.295,824.135,861.970,840.585,0.000,0.000,0
1507100841.629,870.195,830.715,853.745,845.520,0.000,0.000,0
1507100841.629,801.105,806.040,827.425,830.715,0.000,0.000,0
1507100841.629,801.105,802.750,824.135,817.555,0.000,0.000,0
1507100841.629,840.585,817.555,850.455,842.230,0.000,0.000,0
1507100841.629,865.260,838.940,871.840,852.100,0.000,0.000,0
1507100841.629,837.295,820.845,843.875,842.230,0.000,0.000,0
1507100841.629,812.620,797.815,819.200,830.715,0.000,0.000,0
1507100841.629,822.490,815.910,838.940,830.715,0.000,0.000,0
1507100841.629,868.550,832.360,865.260,850.455,0.000,0.000,0
1507100841.629,871.840,824.135,855.390,857.035,0.000,0.000,0
1507100841.697,809.330,802.750,830.715,832.360,0.000,0.000,0
1507100841.697,801.105,804.395,830.715,822.490,0.000,0.000,0
1507100841.697,829.070,822.490,853.745,840.585,0.000,0.000,0
1507100841.697,875.130,825.780,861.970,861.970,0.000,0.000,0
1507100841.697,814.265,812.620,842.230,835.650,0.000,0.000,0
1507100841.697,806.040,796.170,824.135,827.425,0.000,0.000,0
1507100841.697,848.810,815.910,845.520,838.940,0.000,0.000,0
1507100841.697,865.260,842.230,866.905,845.520,0.000,0.000,0
1507100841.697,866.905,824.135,852.100,857.035,0.000,0.000,0
1507100841.697,809.330,802.750,829.070,832.360,0.000,0.000,0
1507100841.697,829.070,807.685,834.005,837.295,0.000,0.000,0
1507100841.697,865.260,822.490,852.100,847.165,0.000,0.000,0
1507100841.697,858.680,829.070,857.035,853.745,0.000,0.000,0
1507100841.697,814.265,815.910,835.650,838.940,0.000,0.000,0
1507100841.697,817.555,807.685,829.070,817.555,0.000,0.000,0
1507100841.697,845.520,820.845,848.810,847.165,0.000,0.000,0
1507100841.777,875.130,835.650,865.260,865.260,0.000,0.000,0
1507100841.777,835.650,817.555,847.165,848.810,0.000,0.000,0
1507100841.777,806.040,804.395,827.425,825.780,0.000,0.000,0
1507100841.777,845.520,815.910,838.940,827.425,0.000,0.000,0
1507100841.777,898.159,827.425,853.745,863.615,0.000,0.000,0
1507100841.777,875.130,830.715,857.035,866.905,0.000,0.000,0
1507100841.777,792.881,814.265,832.360,834.005,0.000,0.000,0
1507100841.777,799.460,807.685,830.715,822.490,0.000,0.000,0
1507100841.777,842.230,832.360,855.390,827.425,0.000,0.000,0
1507100841.777,878.419,832.360,855.390,861.970,0.000,0.000,0
1507100841.777,838.940,812.620,838.940,837.295,0.000,0.000,0
1507100841.777,809.330,804.395,824.135,824.135,0.000,0.000,0
1507100841.777,822.490,815.910,840.585,832.360,0.000,0.000,0
1507100841.777,881.709,832.360,860.325,855.390,0.000,0.000,0
1507100841.777,884.999,827.425,848.810,850.455,0.000,0.000,0
1507100841.777,812.620,802.750,820.845,830.715,0.000,0.000,0
1507100841.846,809.330,812.620,832.360,817.555,0.000,0.000,0
1507100841.846,875.130,827.425,848.810,848.810,0.000,0.000,0
1507100841.846,878.419,834.005,855.390,853.745,0.000,0.000,0
1507100841.846,829.070,815.910,837.295,824.135,0.000,0.000,0
1507100841.846,817.555,801.105,822.490,817.555,0.000,0.000,0
1507100841.846,838.940,820.845,847.165,829.070,0.000,0.000,0
1507100841.846,881.709,830.715,857.035,857.035,0.000,0.000,0
1507100841.846,850.455,820.845,843.875,848.810,0.000,0.000,0
1507100841.846,810.975,809.330,827.425,825.780,0.000,0.000,0
1507100841.846,819.200,810.975,832.360,835.650,0.000,0.000,0
1507100841.846,880.064,838.940,861.970,843.875,0.000,0.000,0
1507100841.846,868.550,834.005,852.100,850.455,0.000,0.000,0
1507100841.846,814.265,809.330,827.425,834.005,0.000,0.000,0
1507100841.846,807.685,810.975,829.070,815.910,0.000,0.000,0
1507100841.846,835.650,822.490,848.810,830.715,0.000,0.000,0
1507100841.846,881.709,829.070,858.680,845.520,0.000,0.000,0
1507100841.931,835.650,812.620,840.585,829.070,0.000,0.000,0
1507100841.931,796.170,799.460,824.135,810.975,0.000,0.000,0
1507100841.931,835.650,815.910,838.940,827.425,0.000,0.000,0
1507100841.931,871.840,832.360,858.680,850.455,0.000,0.000,0
1507100841.931,871.840,827.425,852.100,848.810,0.000,0.000,0
1507100841.931,822.490,801.105,825.780,834.005,0.000,0.000,0
1507100841.931,822.490,802.750,832.360,822.490,0.000,0.000,0
1507100841.931,861.970,827.425,860.325,832.360,0.000,0.000,0
1507100841.931,881.709,830.715,861.970,853.745,0.000,0.000,0
1507100841.931,829.070,810.975,838.940,842.230,0.000,0.000,0
1507100841.931,812.620,799.460,827.425,820.845,0.000,0.000,0
1507100841.931,832.360,812.620,845.520,835.650,0.000,0.000,0
1507100841.931,871.840,835.650,865.260,850.455,0.000,0.000,0
1507100841.931,848.810,827.425,853.745,842.230,0.000,0.000,0
1507100841.931,806.040,802.750,830.715,830.715,0.000,0.000,0
1507100841.931,812.620,809.330,838.940,824.135,0.000,0.000,0
1507100841.996,847.165,827.425,860.325,843.875,0.000,0.000,0
1507100841.996,868.550,825.780,857.035,853.745,0.000,0.000,0
1507100841.996,819.200,810.975,837.295,825.780,0.000,0.000,0
1507100841.996,814.265,804.395,829.070,820.845,0.000,0.000,0
1507100841.996,848.810,825.780,852.100,834.005,0.000,0.000,0
1507100841.996,884.999,834.005,863.615,857.035,0.000,0.000,0
1507100841.996,837.295,820.845,845.520,847.165,0.000,0.000,0
1507100841.996,791.236,797.815,824.135,832.360,0.000,0.000,0
1507100841.996,824.135,809.330,840.585,834.005,0.000,0.000,0
1507100841.996,858.680,835.650,863.615,838.940,0.000,0.000,0
1507100841.996,873.485,830.715,858.680,845.520,0.000,0.000,0
1507100841.996,820.845,810.975,825.780,822.490,0.000,0.000,0
1507100841.996,815.910,807.685,829.070,824.135,0.000,0.000,0
1507100841.996,860.325,822.490,852.100,842.230,0.000,0.000,0
1507100841.996,876.775,830.715,863.615,857.035,0.000,0.000,0
1507100841.996,829.070,814.265,845.520,834.005,0.000,0.000,0
1507100842.062,802.750,799.460,824.135,817.555,0.000,0.000,0
1507100842.062,842.230,814.265,842.230,840.585,0.000,0.000,0
1507100842.062,881.709,832.360,863.615,852.100,0.000,0.000,0
1507100842.062,861.970,822.490,853.745,850.455,0.000,0.000,0
1507100842.062,802.750,804.395,825.780,819.200,0.000,0.000,0
1507100842.062,822.490,807.685,832.360,822.490,0.000,0.000,0
1507100842.062,868.550,820.845,848.810,847.165,0.000,0.000,0
1507100842.062,881.709,830.715,860.325,845.520,0.000,0.000,0
1507100842.062,822.490,812.620,838.940,827.425,0.000,0.000,0
1507100842.062,789.591,802.750,827.425,817.555,0.000,0.000,0
1507100842.062,835.650,824.135,850.455,822.490,0.000,0.000,0
1507100842.062,875.130,825.780,855.390,865.260,0.000,0.000,0
1507100842.062,835.650,825.780,850.455,843.875,0.000,0.000,0
1507100842.062,815.910,804.395,827.425,824.135,0.000,0.000,0
1507100842.062,829.070,815.910,838.940,824.135,0.000,0.000,0
1507100842.062,875.130,830.715,857.035,835.650,0.000,0.000,0
1507100842.062,884.999,829.070,855.390,845.520,0.000,0.000,0
1507100842.145,817.555,804.395,825.780,838.940,0.000,0.000,0
1507100842.145,809.330,802.750,825.780,825.780,0.000,0.000,0
1507100842.145,830.715,827.425,848.810,840.585,0.000,0.000,0
1507100842.145,878.419,830.715,857.035,861.970,0.000,0.000,0
1507100842.145,848.810,815.910,840.585,840.585,0.000,0.000,0
1507100842.145,797.815,804.395,827.425,817.555,0.000,0.000,0
1507100842.145,834.005,812.620,842.230,832.360,0.000,0.000,0
1507100842.145,870.195,827.425,861.970,848.810,0.000,0.000,0
1507100842.145,860.325,825.780,855.390,855.390,0.000,0.000,0
1507100842.145,819.200,796.170,827.425,842.230,0.000,0.000,0
1507100842.145,819.200,806.040,832.360,825.780,0.000,0.000,0
1507100842.145,858.680,829.070,857.035,838.940,0.000,0.000,0
1507100842.145,876.775,834.005,858.680,852.100,0.000,0.000,0
1507100842.145,827.425,812.620,834.005,834.005,0.000,0.000,0
1507100842.145,802.750,801.105,825.780,812.620,0.000,0.000,0
1507100842.145,825.780,820.845,845.520,834.005,0.000,0.000,0
1507100842.213,884.999,832.360,857.035,861.970,0.000,0.000,0
1507100842.213,858.680,822.490,843.875,848.810,0.000,0.000,0
1507100842.213,799.460,801.105,824.135,822.490,0.000,0.000,0
1507100842.213,825.780,810.975,837.295,827.425,0.000,0.000,0
1507100842.213,871.840,829.070,858.680,852.100,0.000,0.000,0
1507100842.213,884.999,827.425,863.615,865.260,0.000,0.000,0
1507100842.213,829.070,802.750,830.715,848.810,0.000,0.000,0
1507100842.213,792.881,797.815,829.070,827.425,0.000,0.000,0
1507100842.213,822.490,824.135,850.455,819.200,0.000,0.000,0
1507100842.213,875.130,834.005,857.035,847.165,0.000,0.000,0
1507100842.213,845.520,819.200,842.230,834.005,0.000,0.000,0
1507100842.213,802.750,802.750,820.845,815.910,0.000,0.000,0
1507100842.213,838.940,812.620,835.650,829.070,0.000,0.000,0
1507100842.213,871.840,834.005,861.970,843.875,0.000,0.000,0
1507100842.213,868.550,830.715,855.390,847.165,0.000,0.000,0
1507100842.213,815.910,804.395,830.715,838.940,0.000,0.000,0
1507100842.294,812.620,796.170,830.715,822.490,0.000,0.000,0
1507100842.294,848.810,822.490,853.745,835.650,0.000,0.000,0
1507100842.294,884.999,829.070,861.970,853.745,0.000,0.000,0
1507100842.294,842.230,819.200,840.585,829.070,0.000,0.000,0
1507100842.294,806.040,809.330,824.135,825.780,0.000,0.000,0
1507100842.294,855.390,817.555,840.585,843.875,0.000,0.000,0
1507100842.294,881.709,835.650,861.970,850.455,0.000,0.000,0
1507100842.294,871.840,825.780,850.455,850.455,0.000,0.000,0
1507100842.294,789.591,807.685,827.425,832.360,0.000,0.000,0
1507100842.294,806.040,809.330,835.650,817.555,0.000,0.000,0
1507100842.294,855.390,827.425,857.035,850.455,0.000,0.000,0
1507100842.294,884.999,830.715,861.970,860.325,0.000,0.000,0
1507100842.294,832.360,807.685,834.005,832.360,0.000,0.000,0
1507100842.294,812.620,806.040,827.425,809.330,0.000,0.000,0
1507100842.294,852.100,819.200,843.875,838.940,0.000,0.000,0
1507100842.294,881.709,834.005,861.970,853.745,0.000,0.000,0
1507100842.360,853.745,819.200,847.165,838.940,0.000,0.000,0
1507100842.360,804.395,799.460,824.135,827.425,0.000,0.000,0
1507100842.360,820.845,812.620,835.650,824.135,0.000,0.000,0
1507100842.360,857.035,834.005,858.680,843.875,0.000,0.000,0
1507100842.360,873.485,829.070,858.680,861.970,0.000,0.000,0
1507100842.360,801.105,806.040,832.360,830.715,0.000,0.000,0
1507100842.360,809.330,807.685,830.715,820.845,0.000,0.000,0
1507100842.360,857.035,819.200,848.810,842.230,0.000,0.000,0
1507100842.360,870.195,834.005,863.615,847.165,0.000,0.000,0
1507100842.360,832.360,819.200,843.875,835.650,0.000,0.000,0
1507100842.360,804.395,801.105,827.425,819.200,0.000,0.000,0
1507100842.360,830.715,820.845,843.875,825.780,0.000,0.000,0
1507100842.360,876.775,830.715,860.325,853.745,0.000,0.000,0
1507100842.360,857.035,822.490,850.455,853.745,0.000,0.000,0
1507100842.360,792.881,802.750,829.070,819.200,0.000,0.000,0
1507100842.360,809.330,806.040,830.715,819.200,0.000,0.000,0
1507100842.427,865.260,827.425,853.745,843.875,0.000,0.000,0
1507100842.427,884.999,835.650,860.325,848.810,0.000,0.000,0
1507100842.427,822.490,815.910,840.585,829.070,0.000,0.000,0
1507100842.427,804.395,807.685,827.425,815.910,0.000,0.000,0
1507100842.427,838.940,824.135,847.165,834.005,0.000,0.000,0
1507100842.427,870.195,835.650,857.035,852.100,0.000,0.000,0
1507100842.427,847.165,817.555,838.940,848.810,0.000,0.000,0
1507100842.427,809.330,809.330,830.715,817.555,0.000,0.000,0
1507100842.427,822.490,815.910,837.295,820.845,0.000,0.000,0
1507100842.427,883.354,832.360,853.745,850.455,0.000,0.000,0
1507100842.427,891.579,829.070,853.745,865.260,0.000,0.000,0
1507100842.427,812.620,812.620,835.650,829.070,0.000,0.000,0
1507100842.427,809.330,806.040,825.780,820.845,0.000,0.000,0
1507100842.427,858.680,829.070,853.745,835.650,0.000,0.000,0
1507100842.427,880.064,834.005,858.680,852.100,0.000,0.000,0
1507100842.427,830.715,812.620,837.295,850.455,0.000,0.000,0
1507100842.513,802.750,797.815,822.490,824.135,0.000,0.000,0
1507100842.513,815.910,810.975,835.650,829.070,0.000,0.000,0
1507100842.513,860.325,829.070,857.035,845.520,0.000,0.000,0
1507100842.513,866.905,827.425,855.390,835.650,0.000,0.000,0
1507100842.513,801.105,802.750,827.425,820.845,0.000,0.000,0
1507100842.513,801.105,797.815,829.070,815.910,0.000,0.000,0
1507100842.513,852.100,827.425,855.390,838.940,0.000,0.000,0
1507100842.513,880.064,825.780,860.325,861.970,0.000,0.000,0
1507100842.513,822.490,820.845,847.165,827.425,0.000,0.000,0
1507100842.513,807.685,804.395,827.425,819.200,0.000,0.000,0
1507100842.513,830.715,812.620,843.875,830.715,0.000,0.000,0
1507100842.513,880.064,835.650,865.260,850.455,0.000,0.000,0
1507100842.513,873.485,822.490,852.100,858.680,0.000,0.000,0
1507100842.513,802.750,802.750,827.425,815.910,0.000,0.000,0
1507100842.513,810.975,802.750,829.070,815.910,0.000,0.000,0
1507100842.513,848.810,825.780,857.035,835.650,0.000,0.000,0
1507100842.575,868.550,832.360,860.325,850.455,0.000,0.000,0
1507100842.575,829.070,807.685,835.650,832.360,0.000,0.000,0
1507100842.575,809.330,799.460,829.070,825.780,0.000,0.000,0
1507100842.575,835.650,819.200,847.165,837.295,0.000,0.000,0
1507100842.575,888.289,824.135,861.970,850.455,0.000,0.000,0
1507100842.575,848.810,820.845,847.165,842.230,0.000,0.000,0
1507100842.575,796.170,801.105,824.135,822.490,0.000,0.000,0
1507100842.575,815.910,802.750,832.360,830.715,0.000,0.000,0
1507100842.575,855.390,829.070,860.325,850.455,0.000,0.000,0
1507100842.575,868.550,827.425,858.680,855.390,0.000,0.000,0
1507100842.575,802.750,810.975,832.360,822.490,0.000,0.000,0
1507100842.575,783.011,807.685,829.070,817.555,0.000,0.000,0
1507100842.575,829.070,820.845,848.810,840.585,0.000,0.000,0
1507100842.575,881.709,829.070,861.970,860.325,0.000,0.000,0
1507100842.575,835.650,812.620,845.520,837.295,0.000,0.000,0
1507100842.575,815.910,804.395,825.780,822.490,0.000,0.000,0
1507100842.643,830.715,819.200,840.585,834.005,0.000,0.000,0
1507100842.643,901.449,832.360,858.680,858.680,0.000,0.000,0
1507100842.643,868.550,830.715,855.390,857.035,0.000,0.000,0
1507100842.643,792.881,801.105,825.780,830.715,0.000,0.000,0
1507100842.643,810.975,804.395,829.070,830.715,0.000,0.000,0
1507100842.643,861.970,824.135,852.100,853.745,0.000,0.000,0
1507100842.643,889.934,834.005,860.325,855.390,0.000,0.000,0
1507100842.643,812.620,820.845,842.230,825.780,0.000,0.000,0
1507100842.643,810.975,804.395,827.425,817.555,0.000,0.000,0
1507100842.643,837.295,817.555,840.585,834.005,0.000,0.000,0
1507100842.643,894.869,829.070,857.035,863.615,0.000,0.000,0
1507100842.643,863.615,822.490,845.520,853.745,0.000,0.000,0
1507100842.643,797.815,802.750,827.425,819.200,0.000,0.000,0
1507100842.643,835.650,810.975,835.650,825.780,0.000,0.000,0
1507100842.643,876.775,827.425,855.390,850.455,0.000,0.000,0
1507100842.643,886.644,830.715,853.745,861.970,0.000,0.000,0
1507100842.643,810.975,812.620,830.715,838.940,0.000,0.000,0
1507100842.727,796.170,804.395,825.780,814.265,0.000,0.000,0
1507100842.727,855.390,820.845,843.875,825.780,0.000,0.000,0
1507100842.727,873.485,829.070,858.680,852.100,0.000,0.000,0
1507100842.727,847.165,812.620,838.940,848.810,0.000,0.000,0
1507100842.727,801.105,802.750,825.780,822.490,0.000,0.000,0
1507100842.727,820.845,812.620,840.585,829.070,0.000,0.000,0
1507100842.727,875.130,830.715,857.035,857.035,0.000,0.000,0
1507100842.727,860.325,834.005,858.680,850.455,0.000,0.000,0
1507100842.727,806.040,804.395,832.360,834.005,0.000,0.000,0
1507100842.727,807.685,807.685,834.005,814.265,0.000,0.000,0
1507100842.727,842.230,819.200,850.455,840.585,0.000,0.000,0
1507100842.727,881.709,817.555,855.390,863.615,0.000,0.000,0
1507100842.727,820.845,806.040,835.650,832.360,0.000,0.000,0
1507100842.727,807.685,799.460,824.135,825.780,0.000,0.000,0
1507100842.727,825.780,819.200,847.165,824.135,0.000,0.000,0
1507100842.727,876.775,834.005,861.970,860.325,0.000,0.000,0
1507100842.794,860.325,822.490,852.100,855.390,0.000,0.000,0
1507100842.794,781.366,797.815,830.715,824.135,0.000,0.000,0
1507100842.794,817.555,804.395,840.585,817.555,0.000,0.000,0
1507100842.794,853.745,827.425,858.680,850.455,0.000,0.000,0
1507100842.794,870.195,825.780,863.615,858.680,0.000,0.000,0
1507100842.794,830.715,806.040,835.650,835.650,0.000,0.000,0
1507100842.794,807.685,797.815,827.425,822.490,0.000,0.000,0
1507100842.794,834.005,824.135,852.100,820.845,0.000,0.000,0
1507100842.794,889.934,832.360,860.325,853.745,0.000,0.000,0
1507100842.794,853.745,822.490,852.100,830.715,0.000,0.000,0
1507100842.794,787.946,804.395,827.425,824.135,0.000,0.000,0
1507100842.794,814.265,806.040,838.940,834.005,0.000,0.000,0
1507100842.794,863.615,827.425,860.325,848.810,0.000,0.000,0
1507100842.794,853.745,827.425,860.325,850.455,0.000,0.000,0
1507100842.794,817.555,804.395,838.940,825.780,0.000,0.000,0
1507100842.794,791.236,801.105,832.360,817.555,0.000,0.000,0
1507100842.875,830.715,819.200,850.455,840.585,0.000,0.000,0
1507100842.875,876.775,829.070,863.615,853.745,0.000,0.000,0
1507100842.875,837.295,819.200,845.520,838.940,0.000,0.000,0
1507100842.875,791.236,801.105,830.715,822.490,0.000,0.000,0
1507100842.875,824.135,812.620,845.520,838.940,0.000,0.000,0
1507100842.875,870.195,827.425,863.615,861.970,0.000,0.000,0
1507100842.875,857.035,825.780,860.325,852.100,0.000,0.000,0
1507100842.875,810.975,802.750,835.650,838.940,0.000,0.000,0
1507100842.875,797.815,809.330,840.585,827.425,0.000,0.000,0
1507100842.875,857.035,825.780,853.745,848.810,0.000,0.000,0
1507100842.875,883.354,830.715,861.970,866.905,0.000,0.000,0
1507100842.875,824.135,812.620,835.650,853.745,0.000,0.000,0
1507100842.875,797.815,797.815,827.425,835.650,0.000,0.000,0
1507100842.875,830.715,817.555,850.455,838.940,0.000,0.000,0
1507100842.875,870.195,835.650,863.615,848.810,0.000,0.000,0
1507100842.875,857.035,820.845,848.810,853.745,0.000,0.000,0
1507100842.942,797.815,802.750,829.070,820.845,0.000,0.000,0
1507100842.942,797.815,809.330,835.650,827.425,0.000,0.000,0
1507100842.942,863.615,834.005,861.970,842.230,0.000,0.000,0
1507100842.942,870.195,838.940,865.260,852.100,0.000,0.000,0
1507100842.942,820.845,814.265,837.295,838.940,0.000,0.000,0
1507100842.942,797.815,806.040,832.360,827.425,0.000,0.000,0
1507100842.942,857.035,824.135,850.455,840.585,0.000,0.000,0
1507100842.942,886.644,829.070,863.615,857.035,0.000,0.000,0
1507100842.942,847.165,819.200,852.100,843.875,0.000,0.000,0
1507100842.942,810.975,806.040,829.070,814.265,0.000,0.000,0
1507100842.942,824.135,817.555,843.875,835.650,0.000,0.000,0
1507100842.942,873.485,835.650,860.325,858.680,0.000,0.000,0
1507100842.942,873.485,827.425,855.390,866.905,0.000,0.000,0
1507100842.942,807.685,806.040,837.295,835.650,0.000,0.000,0
1507100842.942,814.265,807.685,837.295,825.780,0.000,0.000,0
1507100842.942,857.035,824.135,857.035,852.100,0.000,0.000,0
1507100843.007,894.869,829.070,863.615,861.970,0.000,0.000,0
1507100843.007,822.490,817.555,843.875,837.295,0.000,0.000,0
1507100843.007,791.236,810.975,830.715,815.910,0.000,0.000,0
1507100843.007,848.810,820.845,848.810,835.650,0.000,0.000,0
1507100843.007,883.354,837.295,866.905,847.165,0.000,0.000,0
1507100843.007,866.905,825.780,852.100,858.680,0.000,0.000,0
1507100843.007,804.395,807.685,832.360,824.135,0.000,0.000,0
1507100843.007,820.845,810.975,835.650,819.200,0.000,0.000,0
1507100843.007,853.745,827.425,857.035,852.100,0.000,0.000,0
1507100843.007,868.550,835.650,865.260,848.810,0.000,0.000,0
1507100843.007,825.780,812.620,837.295,842.230,0.000,0.000,0
1507100843.007,801.105,807.685,830.715,827.425,0.000,0.000,0
1507100843.007,847.165,824.135,852.100,838.940,0.000,0.000,0
1507100843.007,878.419,842.230,863.615,850.455,0.000,0.000,0
1507100843.008,850.455,825.780,845.520,838.940,0.000,0.000,0
1507100843.008,806.040,806.040,827.425,820.845,0.000,0.000,0
1507100843.094,832.360,815.910,837.295,820.845,0.000,0.000,0
1507100843.094,880.064,832.360,857.035,853.745,0.000,0.000,0
1507100843.094,883.354,834.005,858.680,847.165,0.000,0.000,0
1507100843.094,820.845,807.685,832.360,825.780,0.000,0.000,0
1507100843.094,809.330,797.815,827.425,829.070,0.000,0.000,0
1507100843.094,842.230,824.135,853.745,835.650,0.000,0.000,0
1507100843.094,878.419,834.005,861.970,868.550,0.000,0.000,0
1507100843.094,834.005,819.200,845.520,847.165,0.000,0.000,0
1507100843.094,799.460,802.750,827.425,810.975,0.000,0.000,0
1507100843.094,824.135,814.265,840.585,834.005,0.000,0.000,0
1507100843.094,876.775,832.360,861.970,840.585,0.000,0.000,0
1507100843.094,865.260,825.780,858.680,842.230,0.000,0.000,0
1507100843.094,809.330,806.040,832.360,824.135,0.000,0.000,0
1507100843.094,807.685,810.975,832.360,822.490,0.000,0.000,0
1507100843.094,850.455,829.070,853.745,838.940,0.000,0.000,0
1507100843.094,884.999,837.295,860.325,852.100,0.000,0.000,0
1507100843.161,832.360,815.910,837.295,843.875,0.000,0.000,0
1507100843.161,806.040,809.330,829.070,814.265,0.000,0.000,0
1507100843.161,855.390,820.845,845.520,838.940,0.000,0.000,0
1507100843.161,888.289,835.650,861.970,848.810,0.000,0.000,0
1507100843.161,848.810,822.490,847.165,838.940,0.000,0.000,0
1507100843.161,786.301,804.395,827.425,820.845,0.000,0.000,0
1507100843.161,809.330,804.395,832.360,832.360,0.000,0.000,0
1507100843.161,858.680,829.070,858.680,848.810,0.000,0.000,0
1507100843.161,868.550,835.650,866.905,848.810,0.000,0.000,0
1507100843.161,815.910,812.620,840.585,827.425,0.000,0.000,0
1507100843.161,786.301,804.395,830.715,825.780,0.000,0.000,0
1507100843.161,835.650,819.200,852.100,850.455,0.000,0.000,0
1507100843.161,875.130,834.005,863.615,855.390,0.000,0.000,0
1507100843.161,838.940,822.490,845.520,842.230,0.000,0.000,0
1507100843.161,806.040,806.040,830.715,817.555,0.000,0.000,0
1507100843.161,825.780,812.620,840.585,829.070,0.000,0.000,0
1507100843.244,871.840,827.425,858.680,858.680,0.000,0.000,0
1507100843.244,875.130,827.425,855.390,853.745,0.000,0.000,0
1507100843.244,809.330,804.395,829.070,827.425,0.000,0.000,0
1507100843.244,792.881,809.330,838.940,806.040,0.000,0.000,0
1507100843.244,852.100,824.135,850.455,838.940,0.000,0.000,0
1507100843.244,871.840,835.650,860.325,843.875,0.000,0.000,0
1507100843.244,835.650,817.555,837.295,835.650,0.000,0.000,0
1507100843.244,796.170,802.750,824.135,820.845,0.000,0.000,0
1507100843.244,819.200,820.845,842.230,820.845,0.000,0.000,0
1507100843.244,861.970,832.360,860.325,843.875,0.000,0.000,0
1507100843.244,858.680,820.845,848.810,843.875,0.000,0.000,0
1507100843.244,812.620,802.750,825.780,817.555,0.000,0.000,0
1507100843.244,802.750,807.685,834.005,812.620,0.000,0.000,0
1507100843.244,865.260,825.780,855.390,840.585,0.000,0.000,0
1507100843.244,868.550,827.425,855.390,857.035,0.000,0.000,0
1507100843.244,822.490,809.330,835.650,835.650,0.000,0.000,0
1507100843.244,807.685,804.395,829.070,825.780,0.000,0.000,0
1507100843.308,843.875,817.555,843.875,843.875,0.000,0.000,0
1507100843.308,893.224,830.715,858.680,853.745,0.000,0.000,0
1507100843.308,857.035,819.200,843.875,842.230,0.000,0.000,0
1507100843.308,804.395,802.750,822.490,824.135,0.000,0.000,0
1507100843.308,817.555,810.975,837.295,830.715,0.000,0.000,0
1507100843.308,857.035,829.070,858.680,850.455,0.000,0.000,0
1507100843.308,880.064,822.490,853.745,858.680,0.000,0.000,0
1507100843.308,804.395,807.685,830.715,824.135,0.000,0.000,0
1507100843.308,804.395,807.685,829.070,815.910,0.000,0.000,0
1507100843.308,853.745,825.780,848.810,834.005,0.000,0.000,0
1507100843.308,873.485,840.585,860.325,843.875,0.000,0.000,0
1507100843.308,840.585,819.200,840.585,837.295,0.000,0.000,0
1507100843.308,797.815,804.395,824.135,822.490,0.000,0.000,0
1507100843.308,830.715,815.910,842.230,837.295,0.000,0.000,0
1507100843.308,883.354,832.360,865.260,843.875,0.000,0.000,0
1507100843.308,853.745,830.715,855.390,837.295,0.000,0.000,0
1507100843.392,801.105,809.330,835.650,814.265,0.000,0.000,0
1507100843.392,804.395,802.750,827.425,824.135,0.000,0.000,0
1507100843.392,853.745,827.425,855.390,838.940,0.000,0.000,0
1507100843.392,889.934,835.650,861.970,842.230,0.000,0.000,0
1507100843.392,830.715,814.265,835.650,825.780,0.000,0.000,0
1507100843.392,801.105,804.395,824.135,814.265,0.000,0.000,0
1507100843.392,847.165,815.910,847.165,834.005,0.000,0.000,0
1507100843.392,873.485,835.650,865.260,850.455,0.000,0.000,0
1507100843.392,843.875,820.845,852.100,852.100,0.000,0.000,0
1507100843.392,797.815,806.040,835.650,819.200,0.000,0.000,0
1507100843.392,820.845,810.975,835.650,817.555,0.000,0.000,0
1507100843.392,873.485,824.135,855.390,843.875,0.000,0.000,0
1507100843.392,873.485,834.005,860.325,843.875,0.000,0.000,0
1507100843.392,810.975,810.975,834.005,827.425,0.000,0.000,0
1507100843.392,810.975,801.105,829.070,820.845,0.000,0.000,0
1507100843.392,850.455,824.135,848.810,838.940,0.000,0.000,0
1507100843.457,880.064,835.650,863.615,843.875,0.000,0.000,0
1507100843.457,837.295,817.555,843.875,848.810,0.000,0.000,0
1507100843.457,791.236,807.685,829.070,820.845,0.000,0.000,0
1507100843.457,827.425,812.620,837.295,827.425,0.000,0.000,0
1507100843.457,866.905,830.715,857.035,852.100,0.000,0.000,0
1507100843.457,866.905,830.715,855.390,845.520,0.000,0.000,0
1507100843.457,820.845,807.685,830.715,829.070,0.000,0.000,0
1507100843.457,807.685,804.395,829.070,819.200,0.000,0.000,0
1507100843.457,853.745,824.135,848.810,840.585,0.000,0.000,0
1507100843.457,876.775,830.715,861.970,847.165,0.000,0.000,0
1507100843.457,827.425,815.910,838.940,838.940,0.000,0.000,0
1507100843.457,801.105,812.620,832.360,810.975,0.000,0.000,0
1507100843.457,837.295,814.265,842.230,827.425,0.000,0.000,0
1507100843.457,880.064,832.360,860.325,847.165,0.000,0.000,0
1507100843.457,860.325,822.490,852.100,848.810,0.000,0.000,0
1507100843.457,817.555,802.750,829.070,829.070,0.000,0.000,0
1507100843.527,809.330,807.685,835.650,832.360,0.000,0.000,0
1507100843.527,852.100,827.425,861.970,843.875,0.000,0.000,0
1507100843.527,884.999,827.425,860.325,852.100,0.000,0.000,0
1507100843.527,832.360,807.685,832.360,834.005,0.000,0.000,0
1507100843.527,804.395,801.105,827.425,822.490,0.000,0.000,0
1507100843.527,822.490,830.715,848.810,832.360,0.000,0.000,0
1507100843.527,888.289,832.360,860.325,863.615,0.000,0.000,0
1507100843.527,837.295,829.070,850.455,837.295,0.000,0.000,0
1507100843.527,801.105,802.750,824.135,825.780,0.000,0.000,0
1507100843.527,822.490,809.330,838.940,820.845,0.000,0.000,0
1507100843.527,871.840,838.940,863.615,838.940,0.000,0.000,0
1507100843.527,886.644,832.360,860.325,852.100,0.000,0.000,0
1507100843.527,815.910,810.975,834.005,822.490,0.000,0.000,0
1507100843.527,815.910,804.395,827.425,834.005,0.000,0.000,0
1507100843.527,824.135,825.780,853.745,837.295,0.000,0.000,0
1507100843.527,886.644,832.360,861.970,861.970,0.000,0.000,0
1507100843.608,845.520,820.845,847.165,842.230,0.000,0.000,0
1507100843.608,802.750,809.330,832.360,817.555,0.000,0.000,0
1507100843.608,853.745,812.620,840.585,837.295,0.000,0.000,0
1507100843.608,878.419,835.650,860.325,852.100,0.000,0.000,0
1507100843.608,858.680,827.425,848.810,860.325,0.000,0.000,0
1507100843.608,809.330,804.395,824.135,838.940,0.000,0.000,0
1507100843.608,802.750,810.975,829.070,825.780,0.000,0.000,0
1507100843.608,858.680,829.070,850.455,845.520,0.000,0.000,0
1507100843.608,888.289,837.295,860.325,852.100,0.000,0.000,0
1507100843.608,824.135,820.845,835.650,835.650,0.000,0.000,0
1507100843.608,815.910,804.395,824.135,815.910,0.000,0.000,0
1507100843.608,847.165,817.555,845.520,824.135,0.000,0.000,0
1507100843.608,853.745,834.005,857.035,835.650,0.000,0.000,0
1507100843.608,847.165,820.845,843.875,845.520,0.000,0.000,0
1507100843.608,796.170,806.040,822.490,822.490,0.000,0.000,0
1507100843.608,812.620,807.685,832.360,827.425,0.000,0.000,0
1507100843.675,866.905,832.360,858.680,837.295,0.000,0.000,0
1507100843.675,875.130,834.005,860.325,847.165,0.000,0.000,0
1507100843.675,819.200,814.265,837.295,825.780,0.000,0.000,0
1507100843.675,807.685,804.395,824.135,830.715,0.000,0.000,0
1507100843.675,847.165,819.200,845.520,843.875,0.000,0.000,0
1507100843.675,873.485,837.295,861.970,843.875,0.000,0.000,0
1507100843.675,852.100,819.200,842.230,834.005,0.000,0.000,0
1507100843.675,810.975,802.750,822.490,817.555,0.000,0.000,0
1507100843.675,829.070,814.265,838.940,825.780,0.000,0.000,0
1507100843.675,875.130,835.650,860.325,842.230,0.000,0.000,0
1507100843.675,870.195,830.715,852.100,855.390,0.000,0.000,0
1507100843.675,827.425,807.685,832.360,824.135,0.000,0.000,0
1507100843.675,824.135,804.395,825.780,820.845,0.000,0.000,0
1507100843.675,853.745,819.200,850.455,852.100,0.000,0.000,0
1507100843.675,868.550,829.070,861.970,850.455,0.000,0.000,0
1507100843.675,835.650,819.200,842.230,837.295,0.000,0.000,0
1507100843.748,812.620,802.750,827.425,825.780,0.000,0.000,0
1507100843.748,845.520,819.200,847.165,838.940,0.000,0.000,0
1507100843.748,894.869,840.585,866.905,850.455,0.000,0.000,0
1507100843.748,858.680,820.845,850.455,860.325,0.000,0.000,0
1507100843.748,799.460,806.040,829.070,829.070,0.000,0.000,0
1507100843.748,824.135,809.330,832.360,835.650,0.000,0.000,0
1507100843.748,857.035,824.135,853.745,863.615,0.000,0.000,0
1507100843.748,884.999,838.940,861.970,857.035,0.000,0.000,0
1507100843.748,825.780,810.975,832.360,845.520,0.000,0.000,0
1507100843.748,804.395,806.040,827.425,810.975,0.000,0.000,0
1507100843.748,843.875,820.845,843.875,832.360,0.000,0.000,0
1507100843.748,883.354,834.005,858.680,850.455,0.000,0.000,0
1507100843.748,853.745,829.070,847.165,845.520,0.000,0.000,0
1507100843.748,810.975,806.040,820.845,830.715,0.000,0.000,0
1507100843.748,814.265,815.910,837.295,824.135,0.000,0.000,0
1507100843.748,866.905,827.425,852.100,858.680,0.000,0.000,0
1507100843.824,858.680,832.360,855.390,848.810,0.000,0.000,0
1507100843.824,789.591,810.975,829.070,825.780,0.000,0.000,0
1507100843.824,799.460,802.750,824.135,820.845,0.000,0.000,0
1507100843.824,842.230,824.135,847.165,825.780,0.000,0.000,0
1507100843.824,894.869,827.425,857.035,861.970,0.000,0.000,0
1507100843.824,860.325,817.555,842.230,848.810,0.000,0.000,0
1507100843.824,812.620,810.975,829.070,820.845,0.000,0.000,0
1507100843.824,825.780,815.910,842.230,843.875,0.000,0.000,0
1507100843.824,871.840,838.940,865.260,850.455,0.000,0.000,0
1507100843.824,860.325,830.715,857.035,861.970,0.000,0.000,0
1507100843.824,801.105,802.750,830.715,840.585,0.000,0.000,0
1507100843.824,807.685,806.040,838.940,829.070,0.000,0.000,0
1507100843.824,855.390,827.425,857.035,847.165,0.000,0.000,0
1507100843.824,884.999,830.715,861.970,857.035,0.000,0.000,0
1507100843.824,834.005,810.975,838.940,837.295,0.000,0.000,0
1507100843.824,799.460,804.395,830.715,819.200,0.000,0.000,0
1507100843.824,827.425,819.200,848.810,842.230,0.000,0.000,0
1507100843.892,871.840,837.295,868.550,858.680,0.000,0.000,0
1507100843.892,853.745,829.070,853.745,837.295,0.000,0.000,0
1507100843.892,810.975,799.460,822.490,824.135,0.000,0.000,0
1507100843.892,822.490,814.265,838.940,817.555,0.000,0.000,0
1507100843.892,863.615,830.715,853.745,845.520,0.000,0.000,0
1507100843.892,873.485,829.070,857.035,852.100,0.000,0.000,0
1507100843.892,806.040,804.395,832.360,842.230,0.000,0.000,0
1507100843.892,802.750,807.685,832.360,822.490,0.000,0.000,0
1507100843.892,837.295,827.425,853.745,842.230,0.000,0.000,0
1507100843.892,884.999,838.940,863.615,853.745,0.000,0.000,0
1507100843.892,852.100,817.555,847.165,832.360,0.000,0.000,0
1507100843.892,809.330,794.526,824.135,825.780,0.000,0.000,0
1507100843.892,829.070,814.265,840.585,830.715,0.000,0.000,0
1507100843.892,861.970,837.295,861.970,845.520,0.000,0.000,0
1507100843.892,870.195,834.005,852.100,853.745,0.000,0.000,0
1507100843.892,819.200,807.685,827.425,830.715,0.000,0.000,0
1507100843.973,804.395,802.750,829.070,824.135,0.000,0.000,0
1507100843.973,853.745,820.845,852.100,848.810,0.000,0.000,0
1507100843.973,878.419,825.780,855.390,863.615,0.000,0.000,0
1507100843.973,847.165,817.555,838.940,840.585,0.000,0.000,0
1507100843.973,820.845,802.750,820.845,837.295,0.000,0.000,0
1507100843.973,825.780,815.910,840.585,842.230,0.000,0.000,0
1507100843.973,871.840,837.295,863.615,843.875,0.000,0.000,0
1507100843.973,850.455,824.135,850.455,850.455,0.000,0.000,0
1507100843.973,799.460,801.105,827.425,824.135,0.000,0.000,0
1507100843.973,815.910,806.040,832.360,829.070,0.000,0.000,0
1507100843.973,868.550,820.845,852.100,847.165,0.000,0.000,0
1507100843.973,876.775,829.070,861.970,852.100,0.000,0.000,0
1507100843.973,814.265,810.975,842.230,832.360,0.000,0.000,0
1507100843.973,812.620,801.105,829.070,822.490,0.000,0.000,0
1507100843.973,847.165,819.200,850.455,843.875,0.000,0.000,0
1507100843.973,871.840,834.005,865.260,855.390,0.000,0.000,0
1507100844.039,845.520,820.845,848.810,852.100,0.000,0.000,0
1507100844.039,802.750,799.460,832.360,834.005,0.000,0.000,0
1507100844.039,812.620,807.685,838.940,843.875,0.000,0.000,0
1507100844.039,884.999,835.650,863.615,850.455,0.000,0.000,0
1507100844.039,871.840,827.425,857.035,848.810,0.000,0.000,0
1507100844.039,799.460,806.040,835.650,832.360,0.000,0.000,0
1507100844.039,825.780,801.105,830.715,829.070,0.000,0.000,0
1507100844.039,865.260,817.555,852.100,845.520,0.000,0.000,0
1507100844.039,881.709,835.650,868.550,858.680,0.000,0.000,0
1507100844.039,832.360,817.555,842.230,842.230,0.000,0.000,0
1507100844.039,783.011,802.750,830.715,817.555,0.000,0.000,0
1507100844.039,819.200,807.685,843.875,835.650,0.000,0.000,0
1507100844.039,868.550,830.715,863.615,848.810,0.000,0.000,0
1507100844.039,865.260,829.070,857.035,845.520,0.000,0.000,0
1507100844.039,819.200,802.750,827.425,830.715,0.000,0.000,0
1507100844.039,812.620,810.975,835.650,819.200,0.000,0.000,0
1507100844.111,855.390,822.490,850.455,848.810,0.000,0.000,0
1507100844.111,884.999,830.715,858.680,860.325,0.000,0.000,0
1507100844.111,838.940,819.200,837.295,835.650,0.000,0.000,0
1507100844.111,812.620,804.395,824.135,834.005,0.000,0.000,0
1507100844.111,845.520,817.555,848.810,837.295,0.000,0.000,0
1507100844.111,894.869,830.715,860.325,857.035,0.000,0.000,0
1507100844.111,855.390,825.780,850.455,858.680,0.000,0.000,0
1507100844.111,796.170,807.685,829.070,827.425,0.000,0.000,0
1507100844.111,832.360,809.330,837.295,835.650,0.000,0.000,0
1507100844.111,858.680,837.295,860.325,847.165,0.000,0.000,0
1507100844.111,894.869,829.070,855.390,853.745,0.000,0.000,0
1507100844.111,819.200,809.330,832.360,832.360,0.000,0.000,0
1507100844.111,802.750,801.105,827.425,832.360,0.000,0.000,0
1507100844.111,838.940,815.910,850.455,847.165,0.000,0.000,0
1507100844.111,884.999,834.005,866.905,861.970,0.000,0.000,0
1507100844.111,852.100,824.135,850.455,835.650,0.000,0.000,0
1507100844.192,797.815,809.330,832.360,824.135,0.000,0.000,0
1507100844.192,827.425,815.910,843.875,832.360,0.000,0.000,0
1507100844.192,873.485,837.295,858.680,850.455,0.000,0.000,0
1507100844.192,875.130,834.005,853.745,848.810,0.000,0.000,0
1507100844.192,819.200,802.750,824.135,825.780,0.000,0.000,0
1507100844.192,806.040,802.750,829.070,825.780,0.000,0.000,0
1507100844.192,847.165,824.135,850.455,840.585,0.000,0.000,0
1507100844.192,876.775,827.425,857.035,871.840,0.000,0.000,0
1507100844.192,827.425,815.910,840.585,848.810,0.000,0.000,0
1507100844.192,794.526,806.040,827.425,824.135,0.000,0.000,0
1507100844.192,824.135,817.555,847.165,837.295,0.000,0.000,0
1507100844.192,873.485,840.585,863.615,852.100,0.000,0.000,0
1507100844.192,857.035,827.425,853.745,845.520,0.000,0.000,0
1507100844.192,807.685,797.815,829.070,842.230,0.000,0.000,0
1507100844.192,812.620,801.105,835.650,829.070,0.000,0.000,0
1507100844.192,855.390,827.425,860.325,848.810,0.000,0.000,0
1507100844.262,875.130,827.425,858.680,861.970,0.000,0.000,0
1507100844.262,832.360,807.685,835.650,832.360,0.000,0.000,0
1507100844.262,802.750,801.105,827.425,822.490,0.000,0.000,0
1507100844.262,848.810,814.265,850.455,832.360,0.000,0.000,0
1507100844.262,888.289,829.070,860.325,855.390,0.000,0.000,0
1507100844.262,845.520,824.135,845.520,847.165,0.000,0.000,0
1507100844.262,806.040,802.750,819.200,820.845,0.000,0.000,0
1507100844.262,825.780,806.040,829.070,830.715,0.000,0.000,0
1507100844.262,861.970,837.295,861.970,832.360,0.000,0.000,0
1507100844.262,875.130,832.360,855.390,840.585,0.000,0.000,0
1507100844.262,809.330,807.685,829.070,827.425,0.000,0.000,0
1507100844.262,806.040,806.040,824.135,814.265,0.000,0.000,0
1507100844.262,858.680,817.555,843.875,837.295,0.000,0.000,0
1507100844.262,878.419,830.715,858.680,853.745,0.000,0.000,0
1507100844.262,835.650,820.845,843.875,838.940,0.000,0.000,0
1507100844.262,806.040,804.395,824.135,820.845,0.000,0.000,0
1507100844.339,837.295,812.620,837.295,845.520,0.000,0.000,0
1507100844.339,888.289,827.425,855.390,870.195,0.000,0.000,0
1507100844.339,866.905,825.780,853.745,865.260,0.000,0.000,0
1507100844.339,804.395,807.685,830.715,838.940,0.000,0.000,0
1507100844.339,814.265,804.395,834.005,829.070,0.000,0.000,0
1507100844.339,860.325,820.845,855.390,853.745,0.000,0.000,0
1507100844.339,884.999,832.360,861.970,857.035,0.000,0.000,0
1507100844.339,817.555,819.200,842.230,822.490,0.000,0.000,0
1507100844.339,799.460,812.620,829.070,802.750,0.000,0.000,0
1507100844.339,835.650,829.070,845.520,812.620,0.000,0.000,0
1507100844.339,876.775,838.940,861.970,845.520,0.000,0.000,0
1507100844.339,850.455,822.490,845.520,852.100,0.000,0.000,0
1507100844.339,791.236,807.685,830.715,820.845,0.000,0.000,0
1507100844.339,822.490,812.620,838.940,824.135,0.000,0.000,0
1507100844.339,873.485,827.425,857.035,857.035,0.000,0.000,0
1507100844.339,884.999,832.360,858.680,853.745,0.000,0.000,0
1507100844.408,822.490,817.555,835.650,819.200,0.000,0.000,0
1507100844.408,802.750,806.040,824.135,815.910,0.000,0.000,0
1507100844.408,848.810,829.070,848.810,824.135,0.000,0.000,0
1507100844.408,888.289,837.295,857.035,848.810,0.000,0.000,0
1507100844.408,835.650,817.555,840.585,837.295,0.000,0.000,0
1507100844.408,799.460,809.330,827.425,812.620,0.000,0.000,0
1507100844.408,829.070,814.265,837.295,820.845,0.000,0.000,0
1507100844.408,871.840,835.650,857.035,845.520,0.000,0.000,0
1507100844.408,865.260,829.070,850.455,855.390,0.000,0.000,0
1507100844.408,809.330,815.910,834.005,817.555,0.000,0.000,0
1507100844.408,815.910,812.620,830.715,822.490,0.000,0.000,0
1507100844.408,875.130,832.360,852.100,840.585,0.000,0.000,0
1507100844.408,894.869,834.005,857.035,861.970,0.000,0.000,0
1507100844.408,832.360,809.330,834.005,855.390,0.000,0.000,0
1507100844.408,799.460,804.395,829.070,822.490,0.000,0.000,0
1507100844.408,835.650,822.490,845.520,822.490,0.000,0.000,0
1507100844.408,868.550,835.650,857.035,857.035,0.000,0.000,0
1507100844.488,842.230,827.425,850.455,842.230,0.000,0.000,0
1507100844.488,802.750,806.040,830.715,829.070,0.000,0.000,0
1507100844.488,830.715,809.330,834.005,832.360,0.000,0.000,0
1507100844.488,880.064,830.715,857.035,847.165,0.000,0.000,0
1507100844.488,880.064,832.360,853.745,853.745,0.000,0.000,0
1507100844.488,832.360,809.330,829.070,842.230,0.000,0.000,0
1507100844.488,804.395,804.395,825.780,820.845,0.000,0.000,0
1507100844.488,822.490,824.135,847.165,827.425,0.000,0.000,0
1507100844.488,876.775,834.005,860.325,858.680,0.000,0.000,0
1507100844.488,845.520,820.845,845.520,843.875,0.000,0.000,0
1507100844.488,802.750,802.750,822.490,824.135,0.000,0.000,0
1507100844.488,830.715,806.040,832.360,829.070,0.000,0.000,0
1507100844.488,865.260,830.715,853.745,843.875,0.000,0.000,0
1507100844.488,868.550,827.425,852.100,848.810,0.000,0.000,0
1507100844.488,809.330,812.620,832.360,824.135,0.000,0.000,0
1507100844.488,797.815,806.040,829.070,819.200,0.000,0.000,0
1507100844.556,825.780,825.780,852.100,830.715,0.000,0.000,0
1507100844.556,880.064,830.715,861.970,860.325,0.000,0.000,0
1507100844.556,850.455,812.620,845.520,847.165,0.000,0.000,0
1507100844.556,796.170,796.170,825.780,820.845,0.000,0.000,0
1507100844.556,807.685,812.620,842.230,829.070,0.000,0.000,0
1507100844.556,870.195,827.425,858.680,848.810,0.000,0.000,0
1507100844.556,870.195,824.135,850.455,850.455,0.000,0.000,0
1507100844.556,815.910,802.750,825.780,835.650,0.000,0.000,0
1507100844.556,807.685,804.395,830.715,827.425,0.000,0.000,0
1507100844.556,853.745,834.005,858.680,845.520,0.000,0.000,0
1507100844.556,884.999,834.005,858.680,861.970,0.000,0.000,0
1507100844.556,815.910,819.200,840.585,830.715,0.000,0.000,0
1507100844.556,797.815,806.040,827.425,824.135,0.000,0.000,0
1507100844.556,845.520,812.620,842.230,837.295,0.000,0.000,0
1507100844.556,891.579,834.005,863.615,847.165,0.000,0.000,0
1507100844.556,861.970,824.135,852.100,843.875,0.000,0.000,0
1507100844.623,802.750,806.040,830.715,822.490,0.000,0.000,0
1507100844.623,809.330,815.910,838.940,834.005,0.000,0.000,0
1507100844.623,855.390,834.005,860.325,850.455,0.000,0.000,0
1507100844.623,868.550,837.295,857.035,857.035,0.000,0.000,0
1507100844.623,822.490,809.330,832.360,835.650,0.000,0.000,0
1507100844.623,802.750,806.040,829.070,819.200,0.000,0.000,0
1507100844.623,842.230,820.845,845.520,858.680,0.000,0.000,0
1507100844.623,875.130,834.005,861.970,858.680,0.000,0.000,0
1507100844.623,835.650,824.135,845.520,838.940,0.000,0.000,0
1507100844.623,789.591,804.395,829.070,827.425,0.000,0.000,0
1507100844.623,815.910,819.200,842.230,825.780,0.000,0.000,0
1507100844.623,861.970,834.005,858.680,858.680,0.000,0.000,0
1507100844.623,848.810,830.715,850.455,860.325,0.000,0.000,0
1507100844.623,802.750,810.975,829.070,829.070,0.000,0.000,0
1507100844.623,796.170,806.040,829.070,817.555,0.000,0.000,0
1507100844.623,842.230,824.135,847.165,843.875,0.000,0.000,0
1507100844.704,880.064,834.005,858.680,855.390,0.000,0.000,0
1507100844.704,835.650,815.910,840.585,838.940,0.000,0.000,0
1507100844.704,809.330,804.395,824.135,822.490,0.000,0.000,0
1507100844.704,832.360,815.910,842.230,825.780,0.000,0.000,0
1507100844.704,888.289,829.070,858.680,855.390,0.000,0.000,0
1507100844.704,873.485,824.135,843.875,852.100,0.000,0.000,0
1507100844.704,799.460,810.975,829.070,809.330,0.000,0.000,0
1507100844.704,802.750,815.910,835.650,814.265,0.000,0.000,0
1507100844.704,845.520,824.135,855.390,834.005,0.000,0.000,0
1507100844.704,873.485,825.780,857.035,852.100,0.000,0.000,0
1507100844.704,819.200,804.395,834.005,840.585,0.000,0.000,0
1507100844.704,801.105,796.170,829.070,822.490,0.000,0.000,0
1507100844.704,840.585,819.200,853.745,832.360,0.000,0.000,0
1507100844.704,855.390,830.715,863.615,858.680,0.000,0.000,0
1507100844.704,843.875,817.555,847.165,845.520,0.000,0.000,0
1507100844.704,792.881,802.750,827.425,824.135,0.000,0.000,0
1507100844.770,819.200,814.265,840.585,827.425,0.000,0.000,0
1507100844.770,873.485,829.070,861.970,855.390,0.000,0.000,0
1507100844.770,870.195,827.425,861.970,863.615,0.000,0.000,0
1507100844.770,807.685,806.040,837.295,835.650,0.000,0.000,0
1507100844.770,810.975,804.395,835.650,817.555,0.000,0.000,0
1507100844.770,858.680,824.135,853.745,830.715,0.000,0.000,0
1507100844.770,875.130,837.295,860.325,848.810,0.000,0.000,0
1507100844.770,840.585,814.265,840.585,850.455,0.000,0.000,0
1507100844.770,786.301,802.750,830.715,820.845,0.000,0.000,0
1507100844.770,835.650,814.265,843.875,834.005,0.000,0.000,0
1507100844.770,884.999,830.715,861.970,857.035,0.000,0.000,0
1507100844.770,871.840,830.715,855.390,840.585,0.000,0.000,0
1507100844.770,815.910,801.105,825.780,829.070,0.000,0.000,0
1507100844.770,814.265,806.040,832.360,820.845,0.000,0.000,0
1507100844.770,861.970,827.425,855.390,838.940,0.000,0.000,0
1507100844.770,873.485,830.715,860.325,860.325,0.000,0.000,0
1507100844.836,847.165,807.685,837.295,838.940,0.000,0.000,0
1507100844.836,847.165,799.460,829.070,825.780,0.000,0.000,0
1507100844.836,873.485,814.265,848.810,843.875,0.000,0.000,0
1507100844.836,899.804,835.650,858.680,860.325,0.000,0.000,0
1507100844.836,873.485,830.715,847.165,835.650,0.000,0.000,0
1507100844.836,847.165,806.040,824.135,817.555,0.000,0.000,0
1507100844.836,847.165,807.685,834.005,829.070,0.000,0.000,0
1507100844.836,873.485,834.005,861.970,835.650,0.000,0.000,0
1507100844.836,873.485,832.360,855.390,865.260,0.000,0.000,0
1507100844.836,820.845,815.910,834.005,830.715,0.000,0.000,0
1507100844.836,820.845,809.330,829.070,827.425,0.000,0.000,0
1507100844.836,847.165,822.490,850.455,848.810,0.000,0.000,0
1507100844.836,873.485,834.005,860.325,861.970,0.000,0.000,0
1507100844.836,820.845,820.845,843.875,847.165,0.000,0.000,0
1507100844.836,794.526,799.460,827.425,820.845,0.000,0.000,0
1507100844.836,820.845,810.975,840.585,840.585,0.000,0.000,0
1507100844.922,866.905,832.360,860.325,847.165,0.000,0.000,0
1507100844.922,870.195,830.715,855.390,845.520,0.000,0.000,0
1507100844.922,810.975,810.975,827.425,825.780,0.000,0.000,0
1507100844.922,814.265,806.040,830.715,815.910,0.000,0.000,0
1507100844.922,863.615,822.490,848.810,848.810,0.000,0.000,0
1507100844.922,903.094,832.360,857.035,855.390,0.000,0.000,0
1507100844.922,843.875,820.845,842.230,837.295,0.000,0.000,0
1507100844.922,814.265,801.105,822.490,830.715,0.000,0.000,0
1507100844.922,817.555,815.910,843.875,835.650,0.000,0.000,0
1507100844.922,870.195,830.715,860.325,866.905,0.000,0.000,0
1507100844.922,860.325,822.490,848.810,860.325,0.000,0.000,0
1507100844.922,791.236,806.040,827.425,827.425,0.000,0.000,0
1507100844.922,817.555,814.265,832.360,822.490,0.000,0.000,0
1507100844.922,853.745,829.070,850.455,847.165,0.000,0.000,0
1507100844.922,876.775,827.425,858.680,855.390,0.000,0.000,0
1507100844.922,830.715,814.265,837.295,838.940,0.000,0.000,0
1507100844.987,806.040,802.750,827.425,834.005,0.000,0.000,0
1507100844.987,840.585,817.555,845.520,837.295,0.000,0.000,0
1507100844.987,886.644,835.650,861.970,863.615,0.000,0.000,0
1507100844.987,855.390,820.845,848.810,843.875,0.000,0.000,0
1507100844.987,804.395,802.750,829.070,825.780,0.000,0.000,0
1507100844.987,810.975,812.620,842.230,824.135,0.000,0.000,0
1507100844.987,865.260,824.135,858.680,847.165,0.000,0.000,0
1507100844.987,881.709,817.555,853.745,858.680,0.000,0.000,0
1507100844.987,796.170,804.395,834.005,824.135,0.000,0.000,0
1507100844.987,786.301,806.040,832.360,812.620,0.000,0.000,0
1507100844.987,832.360,822.490,848.810,834.005,0.000,0.000,0
1507100844.987,866.905,830.715,861.970,863.615,0.000,0.000,0
1507100844.987,843.875,812.620,838.940,848.810,0.000,0.000,0
1507100844.987,807.685,794.526,824.135,829.070,0.000,0.000,0
1507100844.987,824.135,806.040,842.230,829.070,0.000,0.000,0
1507100844.987,873.485,825.780,860.325,847.165,0.000,0.000,0
1507100844.987,863.615,827.425,858.680,852.100,0.000,0.000,0
1507100845.072,812.620,804.395,829.070,827.425,0.000,0.000,0
1507100845.072,804.395,807.685,837.295,822.490,0.000,0.000,0
1507100845.072,857.035,820.845,853.745,850.455,0.000,0.000,0
1507100845.072,868.550,830.715,861.970,853.745,0.000,0.000,0
1507100845.072,837.295,809.330,838.940,842.230,0.000,0.000,0
1507100845.072,801.105,801.105,827.425,832.360,0.000,0.000,0
1507100845.072,829.070,819.200,848.810,824.135,0.000,0.000,0
1507100845.072,875.130,827.425,861.970,866.905,0.000,0.000,0
1507100845.072,842.230,827.425,853.745,837.295,0.000,0.000,0
1507100845.072,806.040,802.750,827.425,822.490,0.000,0.000,0
1507100845.072,830.715,807.685,837.295,837.295,0.000,0.000,0
1507100845.072,871.840,827.425,858.680,847.165,0.000,0.000,0
1507100845.072,870.195,827.425,855.390,852.100,0.000,0.000,0
1507100845.072,819.200,804.395,830.715,829.070,0.000,0.000,0
1507100845.072,810.975,810.975,832.360,820.845,0.000,0.000,0
1507100845.072,848.810,820.845,848.810,848.810,0.000,0.000,0
1507100845.135,888.289,829.070,861.970,863.615,0.000,0.000,0
1507100845.135,843.875,824.135,848.810,843.875,0.000,0.000,0
1507100845.135,804.395,801.105,827.425,827.425,0.000,0.000,0
1507100845.135,822.490,819.200,843.875,830.715,0.000,0.000,0
1507100845.135,868.550,829.070,861.970,860.325,0.000,0.000,0
1507100845.135,873.485,820.845,858.680,848.810,0.000,0.000,0
1507100845.135,817.555,804.395,832.360,835.650,0.000,0.000,0
1507100845.135,822.490,806.040,832.360,838.940,0.000,0.000,0
1507100845.135,853.745,832.360,857.035,848.810,0.000,0.000,0
1507100845.135,884.999,835.650,863.615,871.840,0.000,0.000,0
1507100845.135,832.360,820.845,842.230,837.295,0.000,0.000,0
1507100845.135,809.330,810.975,829.070,820.845,0.000,0.000,0
1507100845.135,845.520,815.910,842.230,845.520,0.000,0.000,0
1507100845.135,876.775,834.005,863.615,855.390,0.000,0.000,0
1507100845.135,861.970,829.070,855.390,845.520,0.000,0.000,0
1507100845.135,815.910,807.685,832.360,830.715,0.000,0.000,0
1507100845.204,834.005,815.910,837.295,829.070,0.000,0.000,0
1507100845.204,855.390,832.360,853.745,852.100,0.000,0.000,0
1507100845.204,871.840,837.295,861.970,863.615,0.000,0.000,0
1507100845.204,814.265,817.555,837.295,835.650,0.000,0.000,0
1507100845.204,789.591,802.750,827.425,822.490,0.000,0.000,0
1507100845.204,861.970,817.555,847.165,842.230,0.000,0.000,0
1507100845.204,886.644,832.360,858.680,863.615,0.000,0.000,0
1507100845.204,845.520,827.425,848.810,838.940,0.000,0.000,0
1507100845.204,806.040,807.685,829.070,815.910,0.000,0.000,0
1507100845.204,815.910,809.330,835.650,820.845,0.000,0.000,0
1507100845.204,883.354,819.200,855.390,848.810,0.000,0.000,0
1507100845.204,866.905,827.425,858.680,863.615,0.000,0.000,0
1507100845.204,794.526,809.330,832.360,837.295,0.000,0.000,0
1507100845.204,794.526,807.685,834.005,819.200,0.000,0.000,0
1507100845.204,838.940,825.780,850.455,842.230,0.000,0.000,0
1507100845.204,889.934,835.650,858.680,861.970,0.000,0.000,0
1507100845.288,889.934,827.425,845.520,837.295,0.000,0.000,0
1507100845.288,889.934,814.265,827.425,814.265,0.000,0.000,0
1507100845.288,889.934,819.200,840.585,825.780,0.000,0.000,0
1507100845.288,916.254,832.360,860.325,847.165,0.000,0.000,0
1507100845.288,889.934,825.780,852.100,861.970,0.000,0.000,0
1507100845.288,837.295,807.685,834.005,835.650,0.000,0.000,0
1507100845.288,837.295,810.975,835.650,824.135,0.000,0.000,0
1507100845.288,863.615,829.070,855.390,848.810,0.000,0.000,0
1507100845.288,889.934,838.940,865.260,850.455,0.000,0.000,0
1507100845.288,837.295,819.200,838.940,842.230,0.000,0.000,0
1507100845.288,810.975,810.975,832.360,824.135,0.000,0.000,0
1507100845.288,863.615,819.200,848.810,848.810,0.000,0.000,0
1507100845.288,889.934,832.360,860.325,875.130,0.000,0.000,0
1507100845.288,863.615,829.070,853.745,858.680,0.000,0.000,0
1507100845.288,837.295,807.685,829.070,832.360,0.000,0.000,0
1507100845.288,837.295,814.265,840.585,825.780,0.000,0.000,0
1507100845.354,876.775,830.715,858.680,850.455,0.000,0.000,0
1507100845.354,881.709,829.070,858.680,857.035,0.000,0.000,0
1507100845.354,802.750,814.265,837.295,837.295,0.000,0.000,0
1507100845.354,783.011,809.330,832.360,829.070,0.000,0.000,0
1507100845.354,842.230,824.135,852.100,838.940,0.000,0.000,0
1507100845.354,878.419,835.650,860.325,850.455,0.000,0.000,0
1507100845.354,848.810,814.265,843.875,848.810,0.000,0.000,0
1507100845.354,809.330,801.105,829.070,827.425,0.000,0.000,0
1507100845.354,832.360,822.490,847.165,837.295,0.000,0.000,0
1507100845.354,855.390,835.650,860.325,860.325,0.000,0.000,0
1507100845.354,866.905,840.585,857.035,847.165,0.000,0.000,0
1507100845.354,807.685,812.620,830.715,832.360,0.000,0.000,0
1507100845.354,810.975,802.750,830.715,825.780,0.000,0.000,0
1507100845.354,860.325,825.780,853.745,840.585,0.000,0.000,0
1507100845.354,891.579,835.650,861.970,860.325,0.000,0.000,0
1507100845.354,819.200,815.910,835.650,840.585,0.000,0.000,0
1507100845.419,807.685,802.750,824.135,825.780,0.000,0.000,0
1507100845.419,835.650,815.910,843.875,832.360,0.000,0.000,0
1507100845.419,870.195,835.650,860.325,848.810,0.000,0.000,0
1507100845.419,878.419,827.425,853.745,847.165,0.000,0.000,0
1507100845.419,810.975,809.330,832.360,830.715,0.000,0.000,0
1507100845.419,807.685,802.750,832.360,834.005,0.000,0.000,0
1507100845.419,838.940,819.200,853.745,845.520,0.000,0.000,0
1507100845.419,852.100,835.650,861.970,842.230,0.000,0.000,0
1507100845.419,809.330,819.200,835.650,824.135,0.000,0.000,0
1507100845.419,804.395,806.040,825.780,817.555,0.000,0.000,0
1507100845.419,847.165,817.555,843.875,830.715,0.000,0.000,0
1507100845.419,884.999,830.715,857.035,850.455,0.000,0.000,0
1507100845.419,845.520,815.910,845.520,853.745,0.000,0.000,0
1507100845.419,789.591,802.750,825.780,822.490,0.000,0.000,0
1507100845.419,799.460,822.490,840.585,824.135,0.000,0.000,0
1507100845.419,852.100,835.650,858.680,855.390,0.000,0.000,0
1507100845.503,871.840,832.360,857.035,863.615,0.000,0.000,0
1507100845.503,815.910,815.910,835.650,834.005,0.000,0.000,0
1507100845.503,809.330,810.975,834.005,817.555,0.000,0.000,0
1507100845.503,835.650,829.070,853.745,835.650,0.000,0.000,0
1507100845.503,880.064,837.295,863.615,858.680,0.000,0.000,0
1507100845.503,832.360,819.200,847.165,843.875,0.000,0.000,0
1507100845.503,806.040,802.750,825.780,835.650,0.000,0.000,0
1507100845.503,832.360,819.200,843.875,832.360,0.000,0.000,0
1507100845.503,866.905,837.295,861.970,853.745,0.000,0.000,0
1507100845.503,868.550,824.135,855.390,857.035,0.000,0.000,0
1507100845.503,804.395,812.620,835.650,814.265,0.000,0.000,0
1507100845.503,825.780,812.620,832.360,837.295,0.000,0.000,0
1507100845.503,861.970,835.650,861.970,845.520,0.000,0.000,0
1507100845.503,886.644,835.650,857.035,868.550,0.000,0.000,0
1507100845.503,832.360,814.265,840.585,842.230,0.000,0.000,0
1507100845.503,806.040,807.685,830.715,812.620,0.000,0.000,0
1507100845.574,835.650,820.845,843.875,840.585,0.000,0.000,0
1507100845.574,888.289,832.360,861.970,863.615,0.000,0.000,0
1507100845.574,843.875,822.490,853.745,855.390,0.000,0.000,0
1507100845.574,801.105,806.040,830.715,825.780,0.000,0.000,0
1507100845.574,814.265,804.395,835.650,829.070,0.000,0.000,0
1507100845.574,855.390,827.425,860.325,843.875,0.000,0.000,0
1507100845.574,881.709,825.780,853.745,852.100,0.000,0.000,0
1507100845.574,801.105,810.975,832.360,825.780,0.000,0.000,0
1507100845.574,809.330,810.975,829.070,814.265,0.000,0.000,0
1507100845.574,850.455,824.135,847.165,840.585,0.000,0.000,0
1507100845.574,878.419,840.585,865.260,843.875,0.000,0.000,0
1507100845.574,848.810,824.135,845.520,850.455,0.000,0.000,0
1507100845.574,812.620,807.685,830.715,824.135,0.000,0.000,0
1507100845.574,820.845,814.265,843.875,825.780,0.000,0.000,0
1507100845.574,873.485,832.360,863.615,842.230,0.000,0.000,0
1507100845.574,886.644,829.070,858.680,853.745,0.000,0.000,0
1507100845.574,810.975,810.975,834.005,825.780,0.000,0.000,0
1507100845.652,814.265,804.395,830.715,840.585,0.000,0.000,0
1507100845.652,857.035,825.780,858.680,855.390,0.000,0.000,0
1507100845.652,896.514,830.715,863.615,865.260,0.000,0.000,0
1507100845.652,853.745,814.265,843.875,845.520,0.000,0.000,0
1507100845.652,817.555,797.815,824.135,825.780,0.000,0.000,0
1507100845.652,837.295,814.265,840.585,832.360,0.000,0.000,0
1507100845.652,860.325,840.585,865.260,834.005,0.000,0.000,0
1507100845.652,870.195,834.005,857.035,837.295,0.000,0.000,0
1507100845.652,810.975,807.685,830.715,822.490,0.000,0.000,0
1507100845.652,820.845,810.975,838.940,825.780,0.000,0.000,0
1507100845.652,863.615,824.135,857.035,857.035,0.000,0.000,0
1507100845.652,873.485,834.005,863.615,848.810,0.000,0.000,0
1507100845.652,824.135,812.620,840.585,840.585,0.000,0.000,0
1507100845.652,791.236,802.750,830.715,829.070,0.000,0.000,0
1507100845.652,843.875,820.845,850.455,840.585,0.000,0.000,0
1507100845.652,880.064,834.005,868.550,857.035,0.000,0.000,0
1507100845.721,855.390,817.555,852.100,852.100,0.000,0.000,0
1507100845.721,794.526,807.685,829.070,824.135,0.000,0.000,0
1507100845.721,830.715,812.620,842.230,825.780,0.000,0.000,0
1507100845.721,863.615,829.070,861.970,848.810,0.000,0.000,0
1507100845.721,866.905,825.780,857.035,850.455,0.000,0.000,0
1507100845.721,820.845,807.685,835.650,822.490,0.000,0.000,0
1507100845.721,802.750,801.105,825.780,832.360,0.000,0.000,0
1507100845.721,842.230,825.780,853.745,830.715,0.000,0.000,0
1507100845.721,881.709,837.295,868.550,840.585,0.000,0.000,0
1507100845.721,853.745,814.265,843.875,837.295,0.000,0.000,0
1507100845.721,804.395,801.105,827.425,820.845,0.000,0.000,0
1507100845.721,845.520,810.975,838.940,835.650,0.000,0.000,0
1507100845.721,880.064,825.780,860.325,855.390,0.000,0.000,0
1507100845.721,870.195,824.135,853.745,848.810,0.000,0.000,0
1507100845.721,814.265,809.330,832.360,819.200,0.000,0.000,0
1507100845.721,812.620,807.685,834.005,824.135,0.000,0.000,0
1507100845.800,861.970,820.845,852.100,855.390,0.000,0.000,0
1507100845.800,878.419,830.715,863.615,843.875,0.000,0.000,0
1507100845.800,822.490,807.685,835.650,838.940,0.000,0.000,0
1507100845.800,799.460,796.170,825.780,814.265,0.000,0.000,0
1507100845.800,825.780,815.910,842.230,819.200,0.000,0.000,0
1507100845.800,884.999,820.845,853.745,853.745,0.000,0.000,0
1507100845.800,848.810,815.910,845.520,843.875,0.000,0.000,0
1507100845.800,806.040,802.750,827.425,825.780,0.000,0.000,0
1507100845.800,809.330,807.685,834.005,832.360,0.000,0.000,0
1507100845.800,852.100,834.005,858.680,842.230,0.000,0.000,0
1507100845.800,884.999,830.715,857.035,863.615,0.000,0.000,0
1507100845.800,822.490,804.395,834.005,842.230,0.000,0.000,0
1507100845.800,806.040,802.750,830.715,825.780,0.000,0.000,0
1507100845.800,838.940,820.845,850.455,843.875,0.000,0.000,0
1507100845.800,878.419,834.005,863.615,855.390,0.000,0.000,0
1507100845.800,838.940,819.200,843.875,847.165,0.000,0.000,0
1507100845.868,809.330,797.815,824.135,834.005,0.000,0.000,0
1507100845.868,822.490,812.620,838.940,822.490,0.000,0.000,0
1507100845.868,861.970,830.715,853.745,853.745,0.000,0.000,0
1507100845.868,861.970,830.715,855.390,858.680,0.000,0.000,0
1507100845.868,809.330,807.685,830.715,820.845,0.000,0.000,0
1507100845.868,806.040,801.105,827.425,838.940,0.000,0.000,0
1507100845.868,842.230,820.845,850.455,838.940,0.000,0.000,0
1507100845.868,881.709,827.425,855.390,866.905,0.000,0.000,0
1507100845.868,835.650,819.200,840.585,843.875,0.000,0.000,0
1507100845.868,799.460,806.040,827.425,812.620,0.000,0.000,0
1507100845.868,842.230,815.910,842.230,838.940,0.000,0.000,0
1507100845.868,868.550,840.585,863.615,853.745,0.000,0.000,0
1507100845.868,868.550,825.780,847.165,863.615,0.000,0.000,0
1507100845.868,822.490,802.750,830.715,832.360,0.000,0.000,0
1507100845.868,812.620,809.330,832.360,834.005,0.000,0.000,0
1507100845.868,868.550,827.425,857.035,848.810,0.000,0.000,0
1507100845.938,899.804,835.650,858.680,870.195,0.000,0.000,0
1507100845.938,825.780,817.555,834.005,843.875,0.000,0.000,0
1507100845.938,812.620,810.975,830.715,820.845,0.000,0.000,0
1507100845.938,842.230,822.490,847.165,845.520,0.000,0.000,0
1507100845.938,886.644,835.650,863.615,865.260,0.000,0.000,0
1507100845.938,853.745,827.425,847.165,858.680,0.000,0.000,0
1507100845.938,822.490,802.750,825.780,848.810,0.000,0.000,0
1507100845.938,819.200,815.910,840.585,835.650,0.000,0.000,0
1507100845.938,866.905,837.295,861.970,857.035,0.000,0.000,0
1507100845.938,881.709,829.070,857.035,860.325,0.000,0.000,0
1507100845.938,815.910,804.395,832.360,840.585,0.000,0.000,0
1507100845.938,817.555,804.395,829.070,832.360,0.000,0.000,0
1507100845.938,847.165,824.135,850.455,847.165,0.000,0.000,0
1507100845.938,898.159,835.650,861.970,852.100,0.000,0.000,0
1507100845.938,863.615,820.845,840.585,845.520,0.000,0.000,0
1507100845.938,815.910,797.815,824.135,824.135,0.000,0.000,0
1507100846.016,825.780,810.975,838.940,838.940,0.000,0.000,0
1507100846.016,853.745,835.650,860.325,860.325,0.000,0.000,0
1507100846.016,857.035,830.715,850.455,848.810,0.000,0.000,0
1507100846.016,819.200,807.685,830.715,832.360,0.000,0.000,0
1507100846.016,830.715,806.040,830.715,827.425,0.000,0.000,0
1507100846.016,863.615,822.490,848.810,855.390,0.000,0.000,0
1507100846.016,878.419,835.650,860.325,865.260,0.000,0.000,0
1507100846.016,847.165,817.555,840.585,843.875,0.000,0.000,0
1507100846.016,810.975,807.685,830.715,819.200,0.000,0.000,0
1507100846.016,829.070,822.490,843.875,837.295,0.000,0.000,0
1507100846.016,878.419,835.650,861.970,858.680,0.000,0.000,0
1507100846.016,852.100,824.135,847.165,848.810,0.000,0.000,0
1507100846.016,814.265,799.460,822.490,837.295,0.000,0.000,0
1507100846.016,817.555,804.395,830.715,837.295,0.000,0.000,0
1507100846.016,850.455,820.845,848.810,845.520,0.000,0.000,0
1507100846.016,870.195,830.715,855.390,847.165,0.000,0.000,0
1507100846.084,817.555,809.330,834.005,840.585,0.000,0.000,0
1507100846.084,810.975,802.750,829.070,817.555,0.000,0.000,0
1507100846.084,847.165,817.555,843.875,858.680,0.000,0.000,0
1507100846.084,876.775,838.940,861.970,858.680,0.000,0.000,0
1507100846.084,840.585,820.845,842.230,847.165,0.000,0.000,0
1507100846.084,804.395,806.040,824.135,824.135,0.000,0.000,0
1507100846.084,814.265,812.620,837.295,837.295,0.000,0.000,0
1507100846.084,880.064,820.845,857.035,852.100,0.000,0.000,0
1507100846.084,863.615,827.425,857.035,842.230,0.000,0.000,0
1507100846.084,810.975,809.330,830.715,822.490,0.000,0.000,0
1507100846.084,804.395,806.040,832.360,825.780,0.000,0.000,0
1507100846.084,850.455,830.715,855.390,845.520,0.000,0.000,0
1507100846.084,886.644,832.360,858.680,852.100,0.000,0.000,0
1507100846.084,827.425,815.910,840.585,843.875,0.000,0.000,0
1507100846.084,801.105,809.330,830.715,820.845,0.000,0.000,0
1507100846.084,840.585,817.555,843.875,837.295,0.000,0.000,0
1507100846.152,840.585,838.940,863.615,852.100,0.000,0.000,0
1507100846.152,840.585,827.425,853.745,845.520,0.000,0.000,0
1507100846.152,787.946,799.460,825.780,835.650,0.000,0.000,0
1507100846.152,787.946,804.395,837.295,837.295,0.000,0.000,0
1507100846.152,814.265,827.425,857.035,852.100,0.000,0.000,0
1507100846.152,840.585,830.715,857.035,858.680,0.000,0.000,0
1507100846.152,787.946,807.685,834.005,835.650,0.000,0.000,0
1507100846.152,787.946,807.685,830.715,817.555,0.000,0.000,0
1507100846.152,814.265,822.490,852.100,834.005,0.000,0.000,0
1507100846.152,866.905,835.650,861.970,853.745,0.000,0.000,0
1507100846.152,840.585,822.490,845.520,850.455,0.000,0.000,0
1507100846.152,814.265,797.815,825.780,827.425,0.000,0.000,0
1507100846.152,814.265,810.975,837.295,830.715,0.000,0.000,0
1507100846.152,840.585,834.005,860.325,842.230,0.000,0.000,0
1507100846.152,840.585,829.070,857.035,857.035,0.000,0.000,0
1507100846.152,814.265,809.330,832.360,843.875,0.000,0.000,0
1507100846.152,822.490,807.685,830.715,830.715,0.000,0.000,0
1507100846.236,847.165,824.135,853.745,852.100,0.000,0.000,0
1507100846.236,894.869,832.360,861.970,865.260,0.000,0.000,0
1507100846.236,838.940,817.555,840.585,847.165,0.000,0.000,0
1507100846.236,806.040,799.460,824.135,832.360,0.000,0.000,0
1507100846.236,834.005,814.265,840.585,835.650,0.000,0.000,0
1507100846.236,871.840,832.360,860.325,850.455,0.000,0.000,0
1507100846.236,861.970,825.780,848.810,855.390,0.000,0.000,0
1507100846.236,822.490,810.975,830.715,822.490,0.000,0.000,0
1507100846.236,830.715,810.975,827.425,825.780,0.000,0.000,0
1507100846.236,860.325,824.135,852.100,852.100,0.000,0.000,0
1507100846.236,893.224,834.005,858.680,866.905,0.000,0.000,0
1507100846.236,825.780,817.555,837.295,838.940,0.000,0.000,0
1507100846.236,802.750,804.395,825.780,825.780,0.000,0.000,0
1507100846.236,852.100,819.200,847.165,840.585,0.000,0.000,0
1507100846.236,870.195,830.715,860.325,848.810,0.000,0.000,0
1507100846.236,860.325,825.780,848.810,850.455,0.000,0.000,0
1507100846.301,810.975,809.330,825.780,835.650,0.000,0.000,0
1507100846.301,809.330,807.685,832.360,835.650,0.000,0.000,0
1507100846.301,866.905,829.070,858.680,857.035,0.000,0.000,0
1507100846.301,893.224,832.360,855.390,863.615,0.000,0.000,0
1507100846.301,829.070,815.910,835.650,838.940,0.000,0.000,0
1507100846.301,832.360,807.685,825.780,835.650,0.000,0.000,0
1507100846.301,840.585,820.845,843.875,848.810,0.000,0.000,0
1507100846.301,857.035,835.650,863.615,855.390,0.000,0.000,0
1507100846.301,850.455,820.845,845.520,847.165,0.000,0.000,0
1507100846.301,792.881,806.040,827.425,829.070,0.000,0.000,0
1507100846.301,832.360,815.910,838.940,835.650,0.000,0.000,0
1507100846.301,880.064,825.780,853.745,853.745,0.000,0.000,0
1507100846.301,863.615,830.715,850.455,852.100,0.000,0.000,0
1507100846.301,820.845,809.330,830.715,820.845,0.000,0.000,0
1507100846.301,820.845,807.685,825.780,830.715,0.000,0.000,0
1507100846.301,855.390,829.070,848.810,838.940,0.000,0.000,0
1507100846.386,888.289,829.070,852.100,853.745,0.000,0.000,0
1507100846.386,845.520,810.975,827.425,857.035,0.000,0.000,0
1507100846.386,794.526,794.526,819.200,819.200,0.000,0.000,0
1507100846.386,822.490,820.845,840.585,817.555,0.000,0.000,0
1507100846.386,880.064,834.005,853.745,853.745,0.000,0.000,0
1507100846.386,855.390,824.135,848.810,838.940,0.000,0.000,0
1507100846.386,819.200,806.040,824.135,820.845,0.000,0.000,0
1507100846.386,814.265,802.750,825.780,835.650,0.000,0.000,0
1507100846.386,845.520,829.070,855.390,837.295,0.000,0.000,0
1507100846.386,876.775,827.425,853.745,861.970,0.000,0.000,0
1507100846.386,814.265,810.975,834.005,845.520,0.000,0.000,0
1507100846.386,822.490,804.395,829.070,824.135,0.000,0.000,0
1507100846.386,853.745,820.845,848.810,835.650,0.000,0.000,0
1507100846.386,896.514,830.715,860.325,865.260,0.000,0.000,0
1507100846.386,850.455,819.200,843.875,855.390,0.000,0.000,0
1507100846.386,809.330,809.330,827.425,829.070,0.000,0.000,0
1507100846.449,815.910,820.845,838.940,829.070,0.000,0.000,0
1507100846.449,865.260,834.005,858.680,857.035,0.000,0.000,0
1507100846.449,868.550,829.070,857.035,852.100,0.000,0.000,0
1507100846.449,812.620,809.330,834.005,832.360,0.000,0.000,0
1507100846.449,825.780,806.040,827.425,820.845,0.000,0.000,0
1507100846.449,861.970,827.425,848.810,838.940,0.000,0.000,0
1507100846.449,904.739,834.005,858.680,860.325,0.000,0.000,0
1507100846.449,858.680,815.910,837.295,848.810,0.000,0.000,0
1507100846.449,802.750,809.330,830.715,825.780,0.000,0.000,0
1507100846.449,835.650,822.490,843.875,827.425,0.000,0.000,0
1507100846.449,871.840,829.070,857.035,857.035,0.000,0.000,0
1507100846.449,861.970,829.070,853.745,858.680,0.000,0.000,0
1507100846.449,822.490,801.105,829.070,820.845,0.000,0.000,0
1507100846.449,819.200,804.395,829.070,820.845,0.000,0.000,0
1507100846.449,838.940,832.360,853.745,840.585,0.000,0.000,0
1507100846.449,888.289,830.715,858.680,847.165,0.000,0.000,0
1507100846.517,832.360,812.620,835.650,845.520,0.000,0.000,0
1507100846.517,802.750,799.460,827.425,822.490,0.000,0.000,0
1507100846.517,865.260,819.200,845.520,830.715,0.000,0.000,0
1507100846.517,880.064,830.715,857.035,861.970,0.000,0.000,0
1507100846.517,860.325,824.135,847.165,852.100,0.000,0.000,0
1507100846.517,810.975,801.105,822.490,834.005,0.000,0.000,0
1507100846.517,834.005,804.395,832.360,837.295,0.000,0.000,0
1507100846.517,863.615,837.295,855.390,848.810,0.000,0.000,0
1507100846.517,868.550,834.005,858.680,860.325,0.000,0.000,0
1507100846.517,819.200,809.330,838.940,838.940,0.000,0.000,0
1507100846.517,799.460,804.395,830.715,814.265,0.000,0.000,0
1507100846.517,848.810,815.910,845.520,832.360,0.000,0.000,0
1507100846.517,880.064,832.360,861.970,843.875,0.000,0.000,0
1507100846.517,829.070,820.845,845.520,837.295,0.000,0.000,0
1507100846.517,792.881,801.105,827.425,830.715,0.000,0.000,0
1507100846.517,832.360,812.620,842.230,837.295,0.000,0.000,0
1507100846.601,878.419,834.005,861.970,855.390,0.000,0.000,0
1507100846.601,870.195,829.070,855.390,858.680,0.000,0.000,0
1507100846.601,810.975,810.975,834.005,832.360,0.000,0.000,0
1507100846.601,810.975,807.685,834.005,827.425,0.000,0.000,0
1507100846.601,848.810,822.490,852.100,848.810,0.000,0.000,0
1507100846.601,880.064,834.005,866.905,860.325,0.000,0.000,0
1507100846.601,827.425,815.910,848.810,835.650,0.000,0.000,0
1507100846.601,792.881,804.395,834.005,817.555,0.000,0.000,0
1507100846.601,824.135,822.490,850.455,830.715,0.000,0.000,0
1507100846.601,876.775,830.715,861.970,853.745,0.000,0.000,0
1507100846.601,857.035,825.780,853.745,857.035,0.000,0.000,0
1507100846.601,809.330,806.040,830.715,820.845,0.000,0.000,0
1507100846.601,817.555,809.330,832.360,814.265,0.000,0.000,0
1507100846.601,863.615,830.715,855.390,838.940,0.000,0.000,0
1507100846.601,878.419,834.005,858.680,857.035,0.000,0.000,0
1507100846.601,822.490,817.555,842.230,837.295,0.000,0.000,0
1507100846.688,829.070,802.750,829.070,825.780,0.000,0.000,0
1507100846.688,845.520,822.490,850.455,838.940,0.000,0.000,0
1507100846.688,899.804,837.295,860.325,868.550,0.000,0.000,0
1507100846.688,880.064,820.845,850.455,858.680,0.000,0.000,0
1507100846.688,819.200,810.975,829.070,822.490,0.000,0.000,0
1507100846.688,827.425,815.910,837.295,827.425,0.000,0.000,0
1507100846.688,871.840,835.650,857.035,852.100,0.000,0.000,0
1507100846.688,863.615,829.070,853.745,866.905,0.000,0.000,0
1507100846.688,815.910,815.910,840.585,838.940,0.000,0.000,0
1507100846.688,814.265,809.330,832.360,827.425,0.000,0.000,0
1507100846.688,860.325,825.780,850.455,847.165,0.000,0.000,0
1507100846.688,901.449,832.360,860.325,870.195,0.000,0.000,0
1507100846.688,840.585,814.265,840.585,858.680,0.000,0.000,0
1507100846.688,799.460,802.750,827.425,827.425,0.000,0.000,0
1507100846.688,832.360,815.910,843.875,830.715,0.000,0.000,0
1507100846.688,853.745,832.360,857.035,843.875,0.000,0.000,0
1507100846.757,883.354,829.070,853.745,855.390,0.000,0.000,0
1507100846.757,806.040,807.685,834.005,827.425,0.000,0.000,0
1507100846.757,809.330,807.685,834.005,827.425,0.000,0.000,0
1507100846.757,860.325,827.425,855.390,847.165,0.000,0.000,0
1507100846.757,884.999,832.360,861.970,863.615,0.000,0.000,0
1507100846.757,829.070,807.685,835.650,850.455,0.000,0.000,0
1507100846.757,799.460,801.105,829.070,835.650,0.000,0.000,0
1507100846.757,842.230,819.200,848.810,847.165,0.000,0.000,0
1507100846.757,878.419,834.005,863.615,868.550,0.000,0.000,0
1507100846.757,871.840,830.715,850.455,866.905,0.000,0.000,0
1507100846.757,817.555,806.040,827.425,832.360,0.000,0.000,0
1507100846.757,824.135,809.330,835.650,832.360,0.000,0.000,0
1507100846.757,858.680,830.715,857.035,850.455,0.000,0.000,0
1507100846.757,866.905,834.005,863.615,857.035,0.000,0.000,0
1507100846.757,829.070,810.975,834.005,842.230,0.000,0.000,0
1507100846.757,810.975,804.395,827.425,825.780,0.000,0.000,0
1507100846.757,845.520,822.490,848.810,832.360,0.000,0.000,0
1507100846.817,881.709,834.005,858.680,855.390,0.000,0.000,0
1507100846.817,848.810,820.845,842.230,837.295,0.000,0.000,0
1507100846.817,796.170,807.685,824.135,812.620,0.000,0.000,0
1507100846.817,822.490,812.620,835.650,822.490,0.000,0.000,0
1507100846.817,871.840,829.070,855.390,848.810,0.000,0.000,0
1507100846.817,871.840,827.425,857.035,845.520,0.000,0.000,0
1507100846.817,829.070,804.395,827.425,825.780,0.000,0.000,0
1507100846.817,809.330,806.040,827.425,817.555,0.000,0.000,0
1507100846.817,845.520,832.360,855.390,834.005,0.000,0.000,0
1507100846.817,884.999,830.715,860.325,861.970,0.000,0.000,0
1507100846.817,842.230,815.910,843.875,843.875,0.000,0.000,0
1507100846.817,802.750,807.685,830.715,822.490,0.000,0.000,0
1507100846.817,835.650,810.975,842.230,840.585,0.000,0.000,0
1507100846.817,871.840,837.295,865.260,858.680,0.000,0.000,0
1507100846.817,868.550,830.715,857.035,847.165,0.000,0.000,0
1507100846.817,812.620,806.040,832.360,830.715,0.000,0.000,0
1507100846.898,819.200,817.555,838.940,827.425,0.000,0.000,0
1507100846.898,858.680,827.425,853.745,855.390,0.000,0.000,0
1507100846.898,858.680,830.715,861.970,860.325,0.000,0.000,0
1507100846.898,812.620,814.265,835.650,834.005,0.000,0.000,0
1507100846.898,799.460,802.750,830.715,820.845,0.000,0.000,0
1507100846.898,838.940,817.555,848.810,845.520,0.000,0.000,0
1507100846.898,884.999,838.940,863.615,858.680,0.000,0.000,0
1507100846.898,838.940,827.425,857.035,838.940,0.000,0.000,0
1507100846.898,799.460,802.750,830.715,824.135,0.000,0.000,0
1507100846.898,812.620,815.910,840.585,827.425,0.000,0.000,0
1507100846.898,858.680,822.490,855.390,865.260,0.000,0.000,0
1507100846.898,871.840,825.780,858.680,861.970,0.000,0.000,0
1507100846.898,812.620,815.910,838.940,824.135,0.000,0.000,0
1507100846.898,812.620,802.750,830.715,815.910,0.000,0.000,0
1507100846.898,852.100,820.845,852.100,842.230,0.000,0.000,0
1507100846.898,884.999,832.360,863.615,863.615,0.000,0.000,0
1507100846.966,827.425,817.555,852.100,848.810,0.000,0.000,0
1507100846.966,797.815,807.685,837.295,827.425,0.000,0.000,0
1507100846.966,829.070,815.910,848.810,837.295,0.000,0.000,0
1507100846.966,883.354,825.780,863.615,858.680,0.000,0.000,0
1507100846.966,871.840,822.490,857.035,868.550,0.000,0.000,0
1507100846.966,806.040,807.685,837.295,842.230,0.000,0.000,0
1507100846.966,815.910,806.040,832.360,825.780,0.000,0.000,0
1507100846.966,852.100,824.135,852.100,842.230,0.000,0.000,0
1507100846.966,886.644,829.070,860.325,853.745,0.000,0.000,0
1507100846.966,827.425,822.490,845.520,824.135,0.000,0.000,0
1507100846.966,799.460,807.685,827.425,815.910,0.000,0.000,0
1507100846.966,840.585,820.845,845.520,834.005,0.000,0.000,0
1507100846.966,886.644,837.295,857.035,847.165,0.000,0.000,0
1507100846.966,863.615,824.135,847.165,852.100,0.000,0.000,0
1507100846.966,820.845,810.975,830.715,825.780,0.000,0.000,0
1507100846.966,812.620,815.910,835.650,829.070,0.000,0.000,0
1507100847.032,875.130,825.780,853.745,853.745,0.000,0.000,0
1507100847.032,871.840,830.715,852.100,855.390,0.000,0.000,0
1507100847.032,815.910,812.620,838.940,835.650,0.000,0.000,0
1507100847.032,809.330,802.750,829.070,824.135,0.000,0.000,0
1507100847.032,835.650,819.200,847.165,840.585,0.000,0.000,0
1507100847.032,888.289,829.070,863.615,860.325,0.000,0.000,0
1507100847.032,861.970,814.265,838.940,845.520,0.000,0.000,0
1507100847.032,796.170,802.750,825.780,814.265,0.000,0.000,0
1507100847.032,819.200,812.620,840.585,819.200,0.000,0.000,0
1507100847.032,858.680,827.425,857.035,842.230,0.000,0.000,0
1507100847.032,858.680,832.360,857.035,837.295,0.000,0.000,0
1507100847.032,815.910,807.685,830.715,819.200,0.000,0.000,0
1507100847.032,802.750,809.330,832.360,810.975,0.000,0.000,0
1507100847.032,852.100,824.135,848.810,843.875,0.000,0.000,0
1507100847.032,888.289,829.070,858.680,860.325,0.000,0.000,0
1507100847.032,825.780,817.555,838.940,838.940,0.000,0.000,0
1507100847.116,809.330,797.815,820.845,824.135,0.000,0.000,0
1507100847.116,822.490,817.555,842.230,817.555,0.000,0.000,0
1507100847.116,866.905,827.425,855.390,850.455,0.000,0.000,0
1507100847.116,873.485,822.490,850.455,857.035,0.000,0.000,0
1507100847.116,809.330,797.815,824.135,827.425,0.000,0.000,0
1507100847.116,812.620,799.460,827.425,822.490,0.000,0.000,0
1507100847.116,858.680,825.780,852.100,834.005,0.000,0.000,0
1507100847.116,884.999,830.715,853.745,855.390,0.000,0.000,0
1507100847.116,827.425,817.555,838.940,829.070,0.000,0.000,0
1507100847.116,797.815,806.040,825.780,812.620,0.000,0.000,0
1507100847.116,837.295,817.555,842.230,842.230,0.000,0.000,0
1507100847.116,876.775,832.360,860.325,853.745,0.000,0.000,0
1507100847.116,861.970,824.135,850.455,842.230,0.000,0.000,0
1507100847.116,812.620,802.750,825.780,827.425,0.000,0.000,0
1507100847.116,820.845,809.330,832.360,822.490,0.000,0.000,0
1507100847.116,865.260,830.715,853.745,842.230,0.000,0.000,0
1507100847.180,875.130,834.005,852.100,840.585,0.000,0.000,0
1507100847.180,825.780,810.975,829.070,829.070,0.000,0.000,0
1507100847.180,814.265,812.620,829.070,809.330,0.000,0.000,0
1507100847.180,868.550,820.845,840.585,847.165,0.000,0.000,0
1507100847.180,896.514,829.070,852.100,876.775,0.000,0.000,0
1507100847.180,850.455,824.135,843.875,835.650,0.000,0.000,0
1507100847.180,796.170,799.460,819.200,817.555,0.000,0.000,0
1507100847.180,824.135,812.620,834.005,842.230,0.000,0.000,0
1507100847.180,884.999,837.295,858.680,848.810,0.000,0.000,0
1507100847.180,865.260,834.005,855.390,858.680,0.000,0.000,0
1507100847.180,822.490,812.620,832.360,837.295,0.000,0.000,0
1507100847.180,832.360,807.685,834.005,829.070,0.000,0.000,0
1507100847.180,873.485,824.135,848.810,852.100,0.000,0.000,0
1507100847.180,891.579,834.005,857.035,861.970,0.000,0.000,0
1507100847.180,822.490,817.555,840.585,837.295,0.000,0.000,0
1507100847.180,799.460,807.685,829.070,820.845,0.000,0.000,0
1507100847.249,838.940,815.910,842.230,847.165,0.000,0.000,0
1507100847.249,880.064,830.715,861.970,870.195,0.000,0.000,0
1507100847.249,865.260,830.715,857.035,858.680,0.000,0.000,0
1507100847.249,815.910,804.395,830.715,843.875,0.000,0.000,0
1507100847.249,815.910,804.395,835.650,835.650,0.000,0.000,0
1507100847.249,889.934,827.425,855.390,853.745,0.000,0.000,0
1507100847.249,898.159,830.715,852.100,855.390,0.000,0.000,0
1507100847.249,815.910,817.555,835.650,819.200,0.000,0.000,0
1507100847.249,804.395,812.620,827.425,819.200,0.000,0.000,0
1507100847.249,848.810,825.780,848.810,837.295,0.000,0.000,0
1507100847.249,871.840,834.005,861.970,868.550,0.000,0.000,0
1507100847.249,863.615,815.910,845.520,871.840,0.000,0.000,0
1507100847.249,815.910,804.395,827.425,830.715,0.000,0.000,0
1507100847.249,829.070,820.845,840.585,830.715,0.000,0.000,0
1507100847.249,883.354,837.295,855.390,858.680,0.000,0.000,0
1507100847.249,884.999,832.360,852.100,860.325,0.000,0.000,0
1507100847.332,815.910,806.040,827.425,840.585,0.000,0.000,0
1507100847.332,810.975,807.685,827.425,819.200,0.000,0.000,0
1507100847.332,852.100,829.070,848.810,837.295,0.000,0.000,0
1507100847.332,889.934,837.295,858.680,857.035,0.000,0.000,0
1507100847.332,840.585,815.910,835.650,855.390,0.000,0.000,0
1507100847.332,810.975,799.460,822.490,835.650,0.000,0.000,0
1507100847.332,835.650,819.200,843.875,834.005,0.000,0.000,0
1507100847.332,873.485,829.070,855.390,868.550,0.000,0.000,0
1507100847.332,865.260,834.005,855.390,855.390,0.000,0.000,0
1507100847.332,812.620,804.395,827.425,842.230,0.000,0.000,0
1507100847.332,817.555,810.975,832.360,838.940,0.000,0.000,0
1507100847.332,861.970,827.425,860.325,855.390,0.000,0.000,0
1507100847.332,884.999,829.070,863.615,866.905,0.000,0.000,0
1507100847.332,840.585,814.265,838.940,835.650,0.000,0.000,0
1507100847.332,817.555,804.395,827.425,830.715,0.000,0.000,0
1507100847.332,845.520,824.135,850.455,838.940,0.000,0.000,0
1507100847.332,876.775,835.650,865.260,860.325,0.000,0.000,0
1507100847.397,857.035,822.490,852.100,861.970,0.000,0.000,0
1507100847.397,797.815,801.105,830.715,834.005,0.000,0.000,0
1507100847.397,820.845,809.330,832.360,848.810,0.000,0.000,0
1507100847.397,870.195,832.360,855.390,855.390,0.000,0.000,0
1507100847.397,873.485,835.650,860.325,852.100,0.000,0.000,0
1507100847.397,817.555,810.975,835.650,827.425,0.000,0.000,0
1507100847.397,807.685,802.750,829.070,830.715,0.000,0.000,0
1507100847.397,850.455,824.135,853.745,845.520,0.000,0.000,0
1507100847.397,889.934,837.295,865.260,866.905,0.000,0.000,0
1507100847.397,847.165,829.070,850.455,852.100,0.000,0.000,0
1507100847.397,804.395,812.620,832.360,829.070,0.000,0.000,0
1507100847.397,837.295,820.845,842.230,842.230,0.000,0.000,0
1507100847.397,873.485,837.295,860.325,858.680,0.000,0.000,0
1507100847.397,873.485,834.005,860.325,843.875,0.000,0.000,0
