timestamps,TP9,FP1,FP2,TP10,n/a,n/a,Marker0
1507100304.355,857.035,812.620,848.810,840.585,0.000,0.000,2
1507100304.355,962.313,815.910,857.035,870.195,0.000,0.000,0
1507100304.355,857.035,817.555,848.810,837.295,0.000,0.000,0
1507100304.355,804.395,812.620,838.940,810.975,0.000,0.000,0
1507100304.355,857.035,807.685,843.875,835.650,0.000,0.000,0
1507100304.355,909.674,812.620,852.100,861.970,0.000,0.000,0
1507100304.355,909.674,822.490,850.455,858.680,0.000,0.000,0
1507100304.355,804.395,814.265,840.585,827.425,0.000,0.000,0
1507100304.355,804.395,806.040,837.295,801.105,0.000,0.000,0
1507100304.355,909.674,812.620,848.810,848.810,0.000,0.000,0
1507100304.355,909.674,815.910,852.100,863.615,0.000,0.000,0
1507100304.355,804.395,815.910,843.875,829.070,0.000,0.000,0
1507100304.355,804.395,806.040,837.295,806.040,0.000,0.000,0
1507100304.355,857.035,812.620,843.875,845.520,0.000,0.000,0
1507100304.355,909.674,814.265,852.100,865.260,0.000,0.000,0
1507100304.355,857.035,815.910,843.875,847.165,0.000,0.000,0
1507100304.426,857.035,812.620,835.650,810.975,0.000,0.000,0
1507100304.426,909.674,809.330,838.940,834.005,0.000,0.000,0
1507100304.426,962.313,809.330,850.455,866.905,0.000,0.000,0
1507100304.426,962.313,810.975,850.455,863.615,0.000,0.000,0
1507100304.426,857.035,810.975,840.585,832.360,0.000,0.000,0
1507100304.426,857.035,802.750,838.940,802.750,0.000,0.000,0
1507100304.426,909.674,812.620,845.520,835.650,0.000,0.000,0
1507100304.426,962.313,815.910,855.390,868.550,0.000,0.000,0
1507100304.426,909.674,814.265,847.165,834.005,0.000,0.000,0
1507100304.426,857.035,809.330,840.585,817.555,0.000,0.000,0
1507100304.426,857.035,804.395,843.875,820.845,0.000,0.000,0
1507100304.426,909.674,810.975,852.100,852.100,0.000,0.000,0
1507100304.426,909.674,812.620,847.165,857.035,0.000,0.000,0
1507100304.426,804.395,810.975,837.295,814.265,0.000,0.000,0
1507100304.426,804.395,810.975,840.585,827.425,0.000,0.000,0
1507100304.426,857.035,809.330,847.165,845.520,0.000,0.000,0
1507100304.426,927.769,812.620,853.745,863.615,0.000,0.000,0
1507100304.507,875.130,812.620,842.230,837.295,0.000,0.000,0
1507100304.507,822.490,807.685,832.360,801.105,0.000,0.000,0
1507100304.507,875.130,807.685,842.230,832.360,0.000,0.000,0
1507100304.507,927.769,807.685,848.810,850.455,0.000,0.000,0
1507100304.507,927.769,814.265,847.165,863.615,0.000,0.000,0
1507100304.507,822.490,806.040,837.295,829.070,0.000,0.000,0
1507100304.507,822.490,801.105,838.940,812.620,0.000,0.000,0
1507100304.507,875.130,804.395,848.810,848.810,0.000,0.000,0
1507100304.507,875.130,809.330,847.165,850.455,0.000,0.000,0
1507100304.507,822.490,810.975,838.940,829.070,0.000,0.000,0
1507100304.507,822.490,804.395,832.360,809.330,0.000,0.000,0
1507100304.507,875.130,802.750,842.230,829.070,0.000,0.000,0
1507100304.507,927.769,810.975,852.100,848.810,0.000,0.000,0
1507100304.507,875.130,815.910,848.810,853.745,0.000,0.000,0
1507100304.507,822.490,810.975,837.295,827.425,0.000,0.000,0
1507100304.507,822.490,801.105,838.940,825.780,0.000,0.000,0
1507100304.574,927.769,804.395,843.875,850.455,0.000,0.000,0
1507100304.574,980.408,814.265,845.520,850.455,0.000,0.000,0
1507100304.574,927.769,815.910,835.650,819.200,0.000,0.000,0
1507100304.574,980.408,809.330,835.650,822.490,0.000,0.000,0
1507100304.574,1033.048,807.685,845.520,842.230,0.000,0.000,0
1507100304.574,1085.687,812.620,850.455,870.195,0.000,0.000,0
1507100304.574,980.408,815.910,840.585,843.875,0.000,0.000,0
1507100304.574,927.769,806.040,832.360,827.425,0.000,0.000,0
1507100304.574,927.769,806.040,834.005,807.685,0.000,0.000,0
1507100304.574,980.408,814.265,847.165,838.940,0.000,0.000,0
1507100304.574,980.408,820.845,847.165,852.100,0.000,0.000,0
1507100304.574,875.130,814.265,837.295,819.200,0.000,0.000,0
1507100304.574,875.130,807.685,838.940,829.070,0.000,0.000,0
1507100304.574,927.769,810.975,843.875,848.810,0.000,0.000,0
1507100304.574,927.769,815.910,845.520,852.100,0.000,0.000,0
1507100304.574,822.490,815.910,835.650,830.715,0.000,0.000,0
1507100304.639,875.130,804.395,830.715,822.490,0.000,0.000,0
1507100304.639,927.769,807.685,840.585,837.295,0.000,0.000,0
1507100304.639,980.408,814.265,850.455,852.100,0.000,0.000,0
1507100304.639,927.769,817.555,847.165,850.455,0.000,0.000,0
1507100304.639,875.130,809.330,835.650,804.395,0.000,0.000,0
1507100304.639,875.130,809.330,835.650,817.555,0.000,0.000,0
1507100304.639,927.769,814.265,845.520,853.745,0.000,0.000,0
1507100304.639,927.769,812.620,845.520,845.520,0.000,0.000,0
1507100304.639,822.490,815.910,837.295,827.425,0.000,0.000,0
1507100304.639,822.490,806.040,835.650,815.910,0.000,0.000,0
1507100304.639,875.130,810.975,845.520,843.875,0.000,0.000,0
1507100304.639,927.769,817.555,853.745,875.130,0.000,0.000,0
1507100304.639,875.130,814.265,842.230,850.455,0.000,0.000,0
1507100304.639,822.490,809.330,834.005,819.200,0.000,0.000,0
1507100304.639,875.130,812.620,840.585,832.360,0.000,0.000,0
1507100304.639,927.769,812.620,848.810,866.905,0.000,0.000,0
1507100304.722,980.408,814.265,847.165,858.680,0.000,0.000,0
1507100304.722,875.130,810.975,837.295,820.845,0.000,0.000,0
1507100304.722,875.130,804.395,835.650,815.910,0.000,0.000,0
1507100304.722,927.769,809.330,843.875,834.005,0.000,0.000,0
1507100304.722,980.408,809.330,848.810,863.615,0.000,0.000,0
1507100304.722,875.130,810.975,840.585,834.005,0.000,0.000,0
1507100304.722,822.490,804.395,834.005,809.330,0.000,0.000,0
1507100304.722,875.130,802.750,840.585,830.715,0.000,0.000,0
1507100304.722,927.769,807.685,850.455,853.745,0.000,0.000,0
1507100304.722,927.769,812.620,845.520,863.615,0.000,0.000,0
1507100304.722,822.490,806.040,834.005,825.780,0.000,0.000,0
1507100304.722,822.490,804.395,834.005,814.265,0.000,0.000,0
1507100304.722,875.130,809.330,840.585,845.520,0.000,0.000,0
1507100304.722,875.130,810.975,845.520,871.840,0.000,0.000,0
1507100304.722,769.851,810.975,837.295,825.780,0.000,0.000,0
1507100304.722,769.851,804.395,837.295,824.135,0.000,0.000,0
1507100304.789,875.130,802.750,842.230,824.135,0.000,0.000,0
1507100304.789,980.408,810.975,850.455,855.390,0.000,0.000,0
1507100304.789,927.769,817.555,847.165,850.455,0.000,0.000,0
1507100304.789,875.130,812.620,835.650,837.295,0.000,0.000,0
1507100304.789,875.130,804.395,834.005,827.425,0.000,0.000,0
1507100304.789,927.769,814.265,847.165,838.940,0.000,0.000,0
1507100304.789,927.769,817.555,850.455,870.195,0.000,0.000,0
1507100304.789,822.490,814.265,837.295,825.780,0.000,0.000,0
1507100304.789,822.490,809.330,837.295,814.265,0.000,0.000,0
1507100304.789,875.130,809.330,845.520,850.455,0.000,0.000,0
1507100304.789,875.130,810.975,847.165,848.810,0.000,0.000,0
1507100304.789,822.490,817.555,842.230,847.165,0.000,0.000,0
1507100304.789,769.851,807.685,832.360,822.490,0.000,0.000,0
1507100304.789,822.490,801.105,838.940,825.780,0.000,0.000,0
1507100304.789,875.130,810.975,847.165,842.230,0.000,0.000,0
1507100304.789,875.130,815.910,848.810,858.680,0.000,0.000,0
1507100304.856,822.490,810.975,837.295,832.360,0.000,0.000,0
1507100304.856,875.130,807.685,834.005,829.070,0.000,0.000,0
1507100304.857,927.769,809.330,845.520,847.165,0.000,0.000,0
1507100304.857,927.769,815.910,847.165,853.745,0.000,0.000,0
1507100304.857,822.490,817.555,840.585,829.070,0.000,0.000,0
1507100304.857,822.490,810.975,838.940,812.620,0.000,0.000,0
1507100304.857,875.130,812.620,847.165,832.360,0.000,0.000,0
1507100304.857,927.769,817.555,853.745,838.940,0.000,0.000,0
1507100304.857,927.769,817.555,848.810,848.810,0.000,0.000,0
1507100304.857,875.130,809.330,840.585,829.070,0.000,0.000,0
1507100304.857,875.130,804.395,843.875,837.295,0.000,0.000,0
1507100304.857,927.769,809.330,853.745,861.970,0.000,0.000,0
1507100304.857,927.769,817.555,855.390,863.615,0.000,0.000,0
1507100304.857,822.490,814.265,838.940,832.360,0.000,0.000,0
1507100304.857,822.490,807.685,834.005,820.845,0.000,0.000,0
1507100304.857,875.130,807.685,843.875,838.940,0.000,0.000,0
1507100304.938,980.408,809.330,845.520,847.165,0.000,0.000,0
1507100304.938,927.769,812.620,842.230,835.650,0.000,0.000,0
1507100304.938,875.130,806.040,834.005,814.265,0.000,0.000,0
1507100304.938,875.130,807.685,837.295,827.425,0.000,0.000,0
1507100304.938,927.769,810.975,847.165,866.905,0.000,0.000,0
1507100304.938,927.769,812.620,845.520,848.810,0.000,0.000,0
1507100304.938,822.490,814.265,835.650,820.845,0.000,0.000,0
1507100304.938,822.490,809.330,832.360,812.620,0.000,0.000,0
1507100304.938,875.130,809.330,843.875,834.005,0.000,0.000,0
1507100304.938,875.130,812.620,848.810,861.970,0.000,0.000,0
1507100304.938,769.851,815.910,842.230,838.940,0.000,0.000,0
1507100304.938,717.211,809.330,837.295,804.395,0.000,0.000,0
1507100304.938,769.851,809.330,843.875,832.360,0.000,0.000,0
1507100304.938,822.490,812.620,853.745,855.390,0.000,0.000,0
1507100304.938,822.490,819.200,850.455,857.035,0.000,0.000,0
1507100304.938,769.851,814.265,838.940,834.005,0.000,0.000,0
1507100305.007,822.490,810.975,840.585,814.265,0.000,0.000,0
1507100305.007,927.769,812.620,850.455,847.165,0.000,0.000,0
1507100305.007,927.769,819.200,857.035,857.035,0.000,0.000,0
1507100305.007,822.490,815.910,845.520,830.715,0.000,0.000,0
1507100305.007,822.490,807.685,838.940,815.910,0.000,0.000,0
1507100305.007,875.130,810.975,847.165,829.070,0.000,0.000,0
1507100305.007,927.769,815.910,852.100,866.905,0.000,0.000,0
1507100305.007,875.130,820.845,850.455,842.230,0.000,0.000,0
1507100305.007,822.490,810.975,840.585,812.620,0.000,0.000,0
1507100305.007,875.130,810.975,843.875,825.780,0.000,0.000,0
1507100305.007,927.769,817.555,848.810,834.005,0.000,0.000,0
1507100305.007,927.769,819.200,852.100,861.970,0.000,0.000,0
1507100305.007,822.490,814.265,840.585,825.780,0.000,0.000,0
1507100305.007,822.490,807.685,835.650,814.265,0.000,0.000,0
1507100305.007,875.130,812.620,843.875,830.715,0.000,0.000,0
1507100305.007,927.769,819.200,852.100,858.680,0.000,0.000,0
1507100305.007,825.780,817.555,845.520,835.650,0.000,0.000,0
1507100305.089,825.780,809.330,835.650,802.750,0.000,0.000,0
1507100305.089,878.419,807.685,843.875,838.940,0.000,0.000,0
1507100305.089,931.059,817.555,848.810,860.325,0.000,0.000,0
1507100305.089,931.059,820.845,847.165,863.615,0.000,0.000,0
1507100305.089,825.780,817.555,840.585,847.165,0.000,0.000,0
1507100305.089,825.780,809.330,838.940,820.845,0.000,0.000,0
1507100305.089,878.419,809.330,850.455,840.585,0.000,0.000,0
1507100305.089,931.059,820.845,853.745,865.260,0.000,0.000,0
1507100305.089,825.780,815.910,843.875,832.360,0.000,0.000,0
1507100305.089,825.780,812.620,834.005,814.265,0.000,0.000,0
1507100305.089,878.419,812.620,838.940,834.005,0.000,0.000,0
1507100305.089,931.059,812.620,848.810,858.680,0.000,0.000,0
1507100305.089,878.419,817.555,843.875,850.455,0.000,0.000,0
1507100305.089,825.780,812.620,834.005,814.265,0.000,0.000,0
1507100305.089,825.780,814.265,840.585,815.910,0.000,0.000,0
1507100305.089,878.419,817.555,847.165,840.585,0.000,0.000,0
1507100305.153,904.739,820.845,850.455,865.260,0.000,0.000,0
1507100305.153,799.460,817.555,842.230,843.875,0.000,0.000,0
1507100305.153,799.460,810.975,834.005,817.555,0.000,0.000,0
1507100305.153,878.419,815.910,845.520,852.100,0.000,0.000,0
1507100305.153,904.739,819.200,850.455,853.745,0.000,0.000,0
1507100305.153,825.780,822.490,842.230,829.070,0.000,0.000,0
1507100305.153,773.141,814.265,834.005,827.425,0.000,0.000,0
1507100305.153,799.460,810.975,837.295,817.555,0.000,0.000,0
1507100305.153,878.419,812.620,848.810,852.100,0.000,0.000,0
1507100305.153,878.419,819.200,845.520,861.970,0.000,0.000,0
1507100305.153,773.141,814.265,837.295,824.135,0.000,0.000,0
1507100305.153,773.141,812.620,840.585,825.780,0.000,0.000,0
1507100305.153,852.100,817.555,847.165,840.585,0.000,0.000,0
1507100305.153,904.739,815.910,853.745,860.325,0.000,0.000,0
1507100305.153,799.460,817.555,843.875,825.780,0.000,0.000,0
1507100305.153,773.141,815.910,835.650,820.845,0.000,0.000,0
1507100305.246,825.780,810.975,842.230,842.230,0.000,0.000,0
1507100305.246,878.419,814.265,852.100,852.100,0.000,0.000,0
1507100305.246,878.419,822.490,847.165,857.035,0.000,0.000,0
1507100305.246,773.141,810.975,834.005,822.490,0.000,0.000,0
1507100305.246,773.141,809.330,837.295,822.490,0.000,0.000,0
1507100305.246,825.780,810.975,845.520,857.035,0.000,0.000,0
1507100305.246,825.780,815.910,850.455,860.325,0.000,0.000,0
1507100305.246,773.141,820.845,842.230,838.940,0.000,0.000,0
1507100305.246,773.141,806.040,838.940,822.490,0.000,0.000,0
1507100305.246,825.780,809.330,843.875,837.295,0.000,0.000,0
1507100305.246,878.419,815.910,852.100,873.485,0.000,0.000,0
1507100305.246,825.780,815.910,848.810,857.035,0.000,0.000,0
1507100305.246,773.141,807.685,834.005,806.040,0.000,0.000,0
1507100305.246,825.780,810.975,838.940,822.490,0.000,0.000,0
1507100305.246,878.419,814.265,848.810,845.520,0.000,0.000,0
1507100305.246,878.419,817.555,848.810,855.390,0.000,0.000,0
1507100305.303,825.780,814.265,842.230,843.875,0.000,0.000,0
1507100305.303,825.780,801.105,838.940,817.555,0.000,0.000,0
1507100305.303,878.419,801.105,845.520,847.165,0.000,0.000,0
1507100305.303,931.059,810.975,847.165,863.615,0.000,0.000,0
1507100305.303,878.419,814.265,842.230,834.005,0.000,0.000,0
1507100305.303,825.780,809.330,835.650,819.200,0.000,0.000,0
1507100305.303,878.419,809.330,838.940,814.265,0.000,0.000,0
1507100305.303,931.059,812.620,850.455,863.615,0.000,0.000,0
1507100305.303,931.059,815.910,843.875,861.970,0.000,0.000,0
1507100305.303,825.780,809.330,832.360,822.490,0.000,0.000,0
1507100305.303,825.780,807.685,835.650,829.070,0.000,0.000,0
1507100305.303,878.419,814.265,843.875,840.585,0.000,0.000,0
1507100305.303,931.059,820.845,848.810,861.970,0.000,0.000,0
1507100305.303,825.780,822.490,838.940,840.585,0.000,0.000,0
1507100305.303,773.141,809.330,830.715,815.910,0.000,0.000,0
1507100305.303,825.780,810.975,837.295,830.715,0.000,0.000,0
1507100305.370,931.059,815.910,843.875,870.195,0.000,0.000,0
1507100305.370,878.419,815.910,840.585,860.325,0.000,0.000,0
1507100305.370,825.780,810.975,834.005,815.910,0.000,0.000,0
1507100305.370,825.780,809.330,835.650,815.910,0.000,0.000,0
1507100305.370,878.419,812.620,845.520,845.520,0.000,0.000,0
1507100305.370,878.419,820.845,848.810,865.260,0.000,0.000,0
1507100305.370,773.141,817.555,835.650,842.230,0.000,0.000,0
1507100305.370,773.141,810.975,829.070,804.395,0.000,0.000,0
1507100305.370,825.780,812.620,837.295,827.425,0.000,0.000,0
1507100305.370,878.419,815.910,847.165,860.325,0.000,0.000,0
1507100305.370,825.780,817.555,843.875,855.390,0.000,0.000,0
1507100305.370,773.141,809.330,835.650,815.910,0.000,0.000,0
1507100305.370,825.780,807.685,835.650,820.845,0.000,0.000,0
1507100305.370,878.419,810.975,840.585,847.165,0.000,0.000,0
1507100305.370,878.419,815.910,838.940,852.100,0.000,0.000,0
1507100305.370,773.141,812.620,832.360,837.295,0.000,0.000,0
1507100305.453,825.780,809.330,832.360,815.910,0.000,0.000,0
1507100305.453,931.059,810.975,842.230,838.940,0.000,0.000,0
1507100305.453,983.698,814.265,843.875,871.840,0.000,0.000,0
1507100305.453,878.419,814.265,834.005,842.230,0.000,0.000,0
1507100305.453,878.419,807.685,824.135,824.135,0.000,0.000,0
1507100305.453,931.059,807.685,830.715,834.005,0.000,0.000,0
1507100305.453,983.698,812.620,837.295,850.455,0.000,0.000,0
1507100305.453,983.698,819.200,838.940,870.195,0.000,0.000,0
1507100305.453,878.419,812.620,827.425,814.265,0.000,0.000,0
1507100305.453,878.419,812.620,829.070,812.620,0.000,0.000,0
1507100305.453,931.059,814.265,842.230,840.585,0.000,0.000,0
1507100305.453,931.059,817.555,840.585,857.035,0.000,0.000,0
1507100305.453,825.780,814.265,830.715,825.780,0.000,0.000,0
1507100305.453,825.780,807.685,829.070,815.910,0.000,0.000,0
1507100305.453,878.419,810.975,837.295,829.070,0.000,0.000,0
1507100305.453,931.059,817.555,845.520,863.615,0.000,0.000,0
1507100305.519,878.419,817.555,842.230,855.390,0.000,0.000,0
1507100305.519,825.780,814.265,832.360,810.975,0.000,0.000,0
1507100305.519,878.419,812.620,834.005,829.070,0.000,0.000,0
1507100305.519,931.059,815.910,840.585,834.005,0.000,0.000,0
1507100305.519,931.059,824.135,842.230,855.390,0.000,0.000,0
1507100305.519,825.780,815.910,834.005,829.070,0.000,0.000,0
1507100305.519,825.780,814.265,834.005,810.975,0.000,0.000,0
1507100305.519,878.419,815.910,847.165,853.745,0.000,0.000,0
1507100305.519,878.419,819.200,852.100,855.390,0.000,0.000,0
1507100305.519,825.780,819.200,845.520,852.100,0.000,0.000,0
1507100305.519,773.141,806.040,837.295,824.135,0.000,0.000,0
1507100305.519,825.780,809.330,838.940,830.715,0.000,0.000,0
1507100305.519,878.419,814.265,847.165,873.485,0.000,0.000,0
1507100305.519,878.419,819.200,847.165,860.325,0.000,0.000,0
1507100305.519,773.141,812.620,834.005,812.620,0.000,0.000,0
1507100305.519,773.141,809.330,835.650,812.620,0.000,0.000,0
1507100305.585,878.419,812.620,843.875,830.715,0.000,0.000,0
1507100305.585,931.059,815.910,843.875,855.390,0.000,0.000,0
1507100305.585,825.780,815.910,838.940,840.585,0.000,0.000,0
1507100305.585,825.780,804.395,834.005,824.135,0.000,0.000,0
1507100305.585,878.419,802.750,842.230,835.650,0.000,0.000,0
1507100305.585,931.059,815.910,852.100,866.905,0.000,0.000,0
1507100305.585,878.419,814.265,847.165,865.260,0.000,0.000,0
1507100305.585,773.141,807.685,834.005,809.330,0.000,0.000,0
1507100305.585,773.141,807.685,835.650,814.265,0.000,0.000,0
1507100305.585,878.419,807.685,847.165,857.035,0.000,0.000,0
1507100305.585,878.419,815.910,848.810,876.775,0.000,0.000,0
1507100305.585,773.141,812.620,838.940,842.230,0.000,0.000,0
1507100305.585,773.141,801.105,837.295,830.715,0.000,0.000,0
1507100305.585,825.780,809.330,847.165,835.650,0.000,0.000,0
1507100305.585,878.419,815.910,850.455,876.775,0.000,0.000,0
1507100305.585,825.780,812.620,843.875,855.390,0.000,0.000,0
1507100305.585,761.626,809.330,834.005,817.555,0.000,0.000,0
1507100305.670,866.905,806.040,842.230,829.070,0.000,0.000,0
1507100305.670,972.183,814.265,855.390,845.520,0.000,0.000,0
1507100305.670,972.183,819.200,853.745,861.970,0.000,0.000,0
1507100305.670,866.905,810.975,837.295,822.490,0.000,0.000,0
1507100305.670,866.905,802.750,835.650,809.330,0.000,0.000,0
1507100305.670,919.544,809.330,843.875,835.650,0.000,0.000,0
1507100305.670,972.183,817.555,847.165,865.260,0.000,0.000,0
1507100305.670,866.905,814.265,840.585,825.780,0.000,0.000,0
1507100305.670,866.905,810.975,835.650,815.910,0.000,0.000,0
1507100305.670,919.544,807.685,838.940,822.490,0.000,0.000,0
1507100305.670,972.183,815.910,852.100,857.035,0.000,0.000,0
1507100305.670,972.183,817.555,848.810,868.550,0.000,0.000,0
1507100305.670,866.905,810.975,835.650,810.975,0.000,0.000,0
1507100305.670,866.905,810.975,842.230,830.715,0.000,0.000,0
1507100305.670,919.544,812.620,848.810,847.165,0.000,0.000,0
1507100305.670,919.544,822.490,853.745,870.195,0.000,0.000,0
1507100305.735,814.265,817.555,842.230,850.455,0.000,0.000,0
1507100305.735,814.265,807.685,837.295,810.975,0.000,0.000,0
1507100305.735,866.905,812.620,845.520,830.715,0.000,0.000,0
1507100305.735,919.544,812.620,848.810,861.970,0.000,0.000,0
1507100305.735,866.905,819.200,843.875,845.520,0.000,0.000,0
1507100305.735,814.265,812.620,840.585,824.135,0.000,0.000,0
1507100305.735,814.265,807.685,842.230,834.005,0.000,0.000,0
1507100305.735,866.905,810.975,850.455,850.455,0.000,0.000,0
1507100305.735,866.905,817.555,850.455,866.905,0.000,0.000,0
1507100305.735,761.626,812.620,837.295,834.005,0.000,0.000,0
1507100305.735,761.626,807.685,834.005,819.200,0.000,0.000,0
1507100305.735,814.265,810.975,847.165,848.810,0.000,0.000,0
1507100305.735,866.905,815.910,855.390,871.840,0.000,0.000,0
1507100305.735,814.265,820.845,845.520,832.360,0.000,0.000,0
1507100305.735,761.626,814.265,838.940,817.555,0.000,0.000,0
1507100305.735,814.265,809.330,845.520,832.360,0.000,0.000,0
1507100305.820,919.544,809.330,852.100,857.035,0.000,0.000,0
1507100305.820,919.544,819.200,852.100,858.680,0.000,0.000,0
1507100305.820,814.265,812.620,838.940,824.135,0.000,0.000,0
1507100305.820,814.265,810.975,837.295,812.620,0.000,0.000,0
1507100305.820,919.544,815.910,852.100,858.680,0.000,0.000,0
1507100305.820,919.544,815.910,853.745,865.260,0.000,0.000,0
1507100305.820,814.265,817.555,842.230,835.650,0.000,0.000,0
1507100305.820,814.265,810.975,835.650,815.910,0.000,0.000,0
1507100305.820,866.905,812.620,842.230,824.135,0.000,0.000,0
1507100305.820,919.544,819.200,852.100,871.840,0.000,0.000,0
1507100305.820,866.905,819.200,850.455,857.035,0.000,0.000,0
1507100305.820,814.265,809.330,838.940,822.490,0.000,0.000,0
1507100305.820,814.265,807.685,838.940,820.845,0.000,0.000,0
1507100305.820,866.905,806.040,848.810,857.035,0.000,0.000,0
1507100305.820,866.905,815.910,847.165,863.615,0.000,0.000,0
1507100305.820,761.626,812.620,838.940,829.070,0.000,0.000,0
1507100305.884,814.265,804.395,834.005,819.200,0.000,0.000,0
1507100305.884,919.544,810.975,840.585,830.715,0.000,0.000,0
1507100305.884,972.183,815.910,850.455,857.035,0.000,0.000,0
1507100305.884,919.544,819.200,848.810,842.230,0.000,0.000,0
1507100305.884,866.905,812.620,838.940,809.330,0.000,0.000,0
1507100305.884,919.544,809.330,842.230,817.555,0.000,0.000,0
1507100305.884,972.183,814.265,848.810,858.680,0.000,0.000,0
1507100305.884,972.183,815.910,847.165,865.260,0.000,0.000,0
1507100305.884,866.905,806.040,838.940,797.815,0.000,0.000,0
1507100305.884,866.905,807.685,838.940,797.815,0.000,0.000,0
1507100305.884,919.544,815.910,853.745,840.585,0.000,0.000,0
1507100305.884,972.183,817.555,861.970,870.195,0.000,0.000,0
1507100305.884,866.905,817.555,850.455,852.100,0.000,0.000,0
1507100305.884,814.265,807.685,837.295,814.265,0.000,0.000,0
1507100305.884,866.905,809.330,843.875,817.555,0.000,0.000,0
1507100305.884,919.544,819.200,853.745,863.615,0.000,0.000,0
1507100305.951,919.544,819.200,852.100,871.840,0.000,0.000,0
1507100305.951,866.905,812.620,840.585,837.295,0.000,0.000,0
1507100305.951,866.905,806.040,843.875,834.005,0.000,0.000,0
1507100305.951,919.544,815.910,850.455,840.585,0.000,0.000,0
1507100305.951,919.544,819.200,853.745,861.970,0.000,0.000,0
1507100305.951,814.265,810.975,842.230,832.360,0.000,0.000,0
1507100305.951,814.265,809.330,835.650,802.750,0.000,0.000,0
1507100305.951,866.905,809.330,848.810,837.295,0.000,0.000,0
1507100305.951,919.544,812.620,857.035,863.615,0.000,0.000,0
1507100305.951,866.905,819.200,852.100,845.520,0.000,0.000,0
1507100305.951,814.265,812.620,842.230,834.005,0.000,0.000,0
1507100305.951,814.265,806.040,843.875,829.070,0.000,0.000,0
1507100305.951,866.905,812.620,853.745,860.325,0.000,0.000,0
1507100305.951,866.905,817.555,852.100,865.260,0.000,0.000,0
1507100305.951,761.626,812.620,840.585,835.650,0.000,0.000,0
1507100305.951,761.626,804.395,838.940,815.910,0.000,0.000,0
1507100306.038,866.905,807.685,845.520,834.005,0.000,0.000,0
1507100306.038,972.183,817.555,853.745,852.100,0.000,0.000,0
1507100306.038,919.544,820.845,847.165,853.745,0.000,0.000,0
1507100306.038,866.905,814.265,834.005,820.845,0.000,0.000,0
1507100306.038,919.544,807.685,840.585,845.520,0.000,0.000,0
1507100306.038,972.183,810.975,845.520,850.455,0.000,0.000,0
1507100306.038,972.183,819.200,850.455,853.745,0.000,0.000,0
1507100306.038,866.905,810.975,842.230,829.070,0.000,0.000,0
1507100306.038,866.905,806.040,842.230,815.910,0.000,0.000,0
1507100306.038,919.544,812.620,848.810,855.390,0.000,0.000,0
1507100306.038,919.544,817.555,845.520,853.745,0.000,0.000,0
1507100306.038,814.265,820.845,835.650,832.360,0.000,0.000,0
1507100306.038,814.265,806.040,832.360,810.975,0.000,0.000,0
1507100306.038,866.905,809.330,843.875,834.005,0.000,0.000,0
1507100306.038,919.544,815.910,855.390,857.035,0.000,0.000,0
1507100306.038,866.905,820.845,852.100,843.875,0.000,0.000,0
1507100306.100,866.905,815.910,837.295,820.845,0.000,0.000,0
1507100306.100,866.905,812.620,838.940,822.490,0.000,0.000,0
1507100306.100,919.544,819.200,850.455,850.455,0.000,0.000,0
1507100306.100,919.544,824.135,855.390,863.615,0.000,0.000,0
1507100306.100,814.265,819.200,847.165,830.715,0.000,0.000,0
1507100306.100,814.265,810.975,842.230,807.685,0.000,0.000,0
1507100306.100,866.905,815.910,853.745,855.390,0.000,0.000,0
1507100306.100,919.544,817.555,858.680,880.064,0.000,0.000,0
1507100306.100,866.905,820.845,848.810,843.875,0.000,0.000,0
1507100306.100,814.265,814.265,838.940,819.200,0.000,0.000,0
1507100306.100,866.905,817.555,843.875,832.360,0.000,0.000,0
1507100306.100,919.544,825.780,857.035,858.680,0.000,0.000,0
1507100306.100,919.544,825.780,857.035,865.260,0.000,0.000,0
1507100306.100,814.265,815.910,845.520,825.780,0.000,0.000,0
1507100306.100,814.265,812.620,843.875,832.360,0.000,0.000,0
1507100306.100,866.905,810.975,847.165,850.455,0.000,0.000,0
1507100306.184,972.183,815.910,852.100,868.550,0.000,0.000,0
1507100306.184,919.544,819.200,843.875,837.295,0.000,0.000,0
1507100306.184,866.905,812.620,838.940,806.040,0.000,0.000,0
1507100306.184,919.544,815.910,845.520,835.650,0.000,0.000,0
1507100306.184,972.183,817.555,852.100,857.035,0.000,0.000,0
1507100306.184,919.544,822.490,845.520,860.325,0.000,0.000,0
1507100306.184,814.265,810.975,830.715,810.975,0.000,0.000,0
1507100306.184,814.265,809.330,835.650,827.425,0.000,0.000,0
1507100306.184,866.905,815.910,848.810,852.100,0.000,0.000,0
1507100306.184,866.905,820.845,850.455,852.100,0.000,0.000,0
1507100306.184,761.626,819.200,840.585,827.425,0.000,0.000,0
1507100306.184,761.626,810.975,834.005,797.815,0.000,0.000,0
1507100306.184,814.265,814.265,838.940,847.165,0.000,0.000,0
1507100306.184,866.905,814.265,847.165,870.195,0.000,0.000,0
1507100306.184,814.265,817.555,842.230,860.325,0.000,0.000,0
1507100306.184,761.626,810.975,834.005,827.425,0.000,0.000,0
1507100306.184,807.685,807.685,840.585,804.395,0.000,0.000,0
1507100306.250,912.964,809.330,850.455,858.680,0.000,0.000,0
1507100306.250,965.603,814.265,850.455,860.325,0.000,0.000,0
1507100306.250,860.325,812.620,837.295,824.135,0.000,0.000,0
1507100306.250,860.325,809.330,832.360,804.395,0.000,0.000,0
1507100306.250,912.964,810.975,847.165,843.875,0.000,0.000,0
1507100306.250,965.603,814.265,852.100,866.905,0.000,0.000,0
1507100306.250,912.964,815.910,847.165,855.390,0.000,0.000,0
1507100306.250,860.325,812.620,837.295,806.040,0.000,0.000,0
1507100306.250,912.964,815.910,842.230,807.685,0.000,0.000,0
1507100306.250,965.603,810.975,848.810,847.165,0.000,0.000,0
1507100306.250,912.964,810.975,843.875,825.780,0.000,0.000,0
1507100306.250,860.325,810.975,837.295,820.845,0.000,0.000,0
1507100306.250,860.325,802.750,835.650,815.910,0.000,0.000,0
1507100306.250,912.964,809.330,843.875,847.165,0.000,0.000,0
1507100306.250,912.964,819.200,848.810,861.970,0.000,0.000,0
1507100306.250,807.685,819.200,840.585,827.425,0.000,0.000,0
1507100306.334,860.325,810.975,837.295,796.170,0.000,0.000,0
1507100306.334,965.603,812.620,847.165,834.005,0.000,0.000,0
1507100306.334,1018.243,812.620,853.745,871.840,0.000,0.000,0
1507100306.334,965.603,814.265,847.165,852.100,0.000,0.000,0
1507100306.334,912.964,812.620,835.650,822.490,0.000,0.000,0
1507100306.334,912.964,807.685,838.940,827.425,0.000,0.000,0
1507100306.334,965.603,814.265,847.165,842.230,0.000,0.000,0
1507100306.334,965.603,822.490,848.810,855.390,0.000,0.000,0
1507100306.334,860.325,815.910,837.295,814.265,0.000,0.000,0
1507100306.334,860.325,809.330,832.360,797.815,0.000,0.000,0
1507100306.334,912.964,814.265,842.230,837.295,0.000,0.000,0
1507100306.334,965.603,814.265,850.455,868.550,0.000,0.000,0
1507100306.334,912.964,819.200,842.230,848.810,0.000,0.000,0
1507100306.334,860.325,810.975,835.650,820.845,0.000,0.000,0
1507100306.334,860.325,809.330,837.295,817.555,0.000,0.000,0
1507100306.334,912.964,817.555,842.230,842.230,0.000,0.000,0
1507100306.400,965.603,820.845,843.875,852.100,0.000,0.000,0
1507100306.400,912.964,815.910,834.005,824.135,0.000,0.000,0
1507100306.400,912.964,809.330,835.650,804.395,0.000,0.000,0
1507100306.400,965.603,812.620,845.520,847.165,0.000,0.000,0
1507100306.400,965.603,815.910,853.745,873.485,0.000,0.000,0
1507100306.400,860.325,817.555,840.585,847.165,0.000,0.000,0
1507100306.400,807.685,807.685,834.005,812.620,0.000,0.000,0
1507100306.400,860.325,810.975,842.230,845.520,0.000,0.000,0
1507100306.400,912.964,812.620,847.165,860.325,0.000,0.000,0
1507100306.400,860.325,814.265,843.875,837.295,0.000,0.000,0
1507100306.400,807.685,810.975,834.005,820.845,0.000,0.000,0
1507100306.400,807.685,807.685,835.650,815.910,0.000,0.000,0
1507100306.400,860.325,812.620,847.165,863.615,0.000,0.000,0
1507100306.400,860.325,822.490,852.100,873.485,0.000,0.000,0
1507100306.400,755.046,819.200,837.295,837.295,0.000,0.000,0
1507100306.400,755.046,809.330,830.715,797.815,0.000,0.000,0
1507100306.469,860.325,810.975,842.230,842.230,0.000,0.000,0
1507100306.469,912.964,810.975,852.100,865.260,0.000,0.000,0
1507100306.469,860.325,820.845,845.520,830.715,0.000,0.000,0
1507100306.469,807.685,814.265,837.295,814.265,0.000,0.000,0
1507100306.469,807.685,812.620,838.940,817.555,0.000,0.000,0
1507100306.469,860.325,815.910,847.165,850.455,0.000,0.000,0
1507100306.469,860.325,814.265,850.455,873.485,0.000,0.000,0
1507100306.469,755.046,810.975,837.295,817.555,0.000,0.000,0
1507100306.469,755.046,807.685,835.650,814.265,0.000,0.000,0
1507100306.469,807.685,807.685,847.165,838.940,0.000,0.000,0
1507100306.469,860.325,820.845,848.810,847.165,0.000,0.000,0
1507100306.469,807.685,819.200,845.520,853.745,0.000,0.000,0
1507100306.469,755.046,812.620,837.295,819.200,0.000,0.000,0
1507100306.469,807.685,812.620,840.585,830.715,0.000,0.000,0
1507100306.469,860.325,815.910,848.810,857.035,0.000,0.000,0
1507100306.469,860.325,814.265,847.165,842.230,0.000,0.000,0
1507100306.550,860.325,810.975,835.650,814.265,0.000,0.000,0
1507100306.550,860.325,804.395,835.650,801.105,0.000,0.000,0
1507100306.550,965.603,809.330,848.810,847.165,0.000,0.000,0
1507100306.550,965.603,820.845,850.455,865.260,0.000,0.000,0
1507100306.550,860.325,820.845,843.875,845.520,0.000,0.000,0
1507100306.550,860.325,810.975,843.875,829.070,0.000,0.000,0
1507100306.550,912.964,812.620,847.165,834.005,0.000,0.000,0
1507100306.550,965.603,815.910,855.390,866.905,0.000,0.000,0
1507100306.550,912.964,817.555,848.810,853.745,0.000,0.000,0
1507100306.550,860.325,817.555,837.295,825.780,0.000,0.000,0
1507100306.550,860.325,810.975,842.230,837.295,0.000,0.000,0
1507100306.550,912.964,812.620,852.100,852.100,0.000,0.000,0
1507100306.550,912.964,815.910,855.390,858.680,0.000,0.000,0
1507100306.550,807.685,812.620,842.230,830.715,0.000,0.000,0
1507100306.550,807.685,809.330,840.585,825.780,0.000,0.000,0
1507100306.550,860.325,809.330,847.165,838.940,0.000,0.000,0
1507100306.616,860.325,815.910,850.455,855.390,0.000,0.000,0
1507100306.616,807.685,815.910,845.520,838.940,0.000,0.000,0
1507100306.616,755.046,806.040,838.940,807.685,0.000,0.000,0
1507100306.616,807.685,807.685,845.520,845.520,0.000,0.000,0
1507100306.616,860.325,806.040,853.745,861.970,0.000,0.000,0
1507100306.616,860.325,814.265,847.165,857.035,0.000,0.000,0
1507100306.616,755.046,812.620,835.650,830.715,0.000,0.000,0
1507100306.616,755.046,807.685,834.005,829.070,0.000,0.000,0
1507100306.616,807.685,807.685,847.165,843.875,0.000,0.000,0
1507100306.616,807.685,812.620,850.455,852.100,0.000,0.000,0
1507100306.616,755.046,815.910,842.230,838.940,0.000,0.000,0
1507100306.616,755.046,812.620,834.005,814.265,0.000,0.000,0
1507100306.616,807.685,812.620,840.585,838.940,0.000,0.000,0
1507100306.616,860.325,812.620,850.455,855.390,0.000,0.000,0
1507100306.616,807.685,819.200,845.520,843.875,0.000,0.000,0
1507100306.616,755.046,812.620,837.295,824.135,0.000,0.000,0
1507100306.683,807.685,807.685,838.940,832.360,0.000,0.000,0
1507100306.683,912.964,809.330,848.810,860.325,0.000,0.000,0
1507100306.683,965.603,809.330,852.100,865.260,0.000,0.000,0
1507100306.683,860.325,809.330,840.585,834.005,0.000,0.000,0
1507100306.683,860.325,809.330,834.005,809.330,0.000,0.000,0
1507100306.683,912.964,809.330,843.875,834.005,0.000,0.000,0
1507100306.683,965.603,812.620,852.100,868.550,0.000,0.000,0
1507100306.683,912.964,817.555,847.165,843.875,0.000,0.000,0
1507100306.683,860.325,810.975,838.940,830.715,0.000,0.000,0
1507100306.683,860.325,806.040,842.230,825.780,0.000,0.000,0
1507100306.683,912.964,814.265,850.455,848.810,0.000,0.000,0
1507100306.683,912.964,817.555,850.455,857.035,0.000,0.000,0
1507100306.683,807.685,812.620,837.295,815.910,0.000,0.000,0
1507100306.683,807.685,810.975,840.585,824.135,0.000,0.000,0
1507100306.683,860.325,809.330,845.520,830.715,0.000,0.000,0
1507100306.683,912.964,812.620,853.745,873.485,0.000,0.000,0
1507100306.768,860.325,812.620,848.810,842.230,0.000,0.000,0
1507100306.768,807.685,807.685,837.295,812.620,0.000,0.000,0
1507100306.768,860.325,810.975,843.875,835.650,0.000,0.000,0
1507100306.768,912.964,815.910,845.520,850.455,0.000,0.000,0
1507100306.768,912.964,822.490,845.520,863.615,0.000,0.000,0
1507100306.768,807.685,810.975,837.295,822.490,0.000,0.000,0
1507100306.768,807.685,806.040,835.650,815.910,0.000,0.000,0
1507100306.768,860.325,810.975,850.455,853.745,0.000,0.000,0
1507100306.768,860.325,812.620,850.455,866.905,0.000,0.000,0
1507100306.768,755.046,815.910,840.585,832.360,0.000,0.000,0
1507100306.768,755.046,809.330,835.650,822.490,0.000,0.000,0
1507100306.768,807.685,809.330,840.585,835.650,0.000,0.000,0
1507100306.768,860.325,814.265,845.520,848.810,0.000,0.000,0
1507100306.768,860.325,820.845,847.165,870.195,0.000,0.000,0
1507100306.768,807.685,807.685,837.295,830.715,0.000,0.000,0
1507100306.768,807.685,804.395,840.585,822.490,0.000,0.000,0
1507100306.768,901.449,812.620,848.810,850.455,0.000,0.000,0
1507100306.832,954.089,812.620,842.230,852.100,0.000,0.000,0
1507100306.832,901.449,814.265,830.715,802.750,0.000,0.000,0
1507100306.832,901.449,806.040,834.005,822.490,0.000,0.000,0
1507100306.832,954.089,806.040,840.585,843.875,0.000,0.000,0
1507100306.832,1006.728,820.845,852.100,863.615,0.000,0.000,0
1507100306.832,954.089,819.200,847.165,857.035,0.000,0.000,0
1507100306.832,901.449,810.975,832.360,824.135,0.000,0.000,0
1507100306.832,901.449,806.040,838.940,825.780,0.000,0.000,0
1507100306.832,954.089,810.975,847.165,865.260,0.000,0.000,0
1507100306.832,954.089,819.200,847.165,871.840,0.000,0.000,0
1507100306.832,848.810,812.620,835.650,825.780,0.000,0.000,0
1507100306.832,848.810,810.975,838.940,829.070,0.000,0.000,0
1507100306.832,901.449,815.910,848.810,843.875,0.000,0.000,0
1507100306.832,901.449,820.845,852.100,855.390,0.000,0.000,0
1507100306.832,796.170,815.910,845.520,840.585,0.000,0.000,0
1507100306.832,796.170,807.685,837.295,829.070,0.000,0.000,0
1507100306.920,901.449,806.040,847.165,837.295,0.000,0.000,0
1507100306.920,954.089,817.555,855.390,858.680,0.000,0.000,0
1507100306.920,954.089,822.490,853.745,861.970,0.000,0.000,0
1507100306.920,901.449,815.910,842.230,824.135,0.000,0.000,0
1507100306.920,901.449,812.620,843.875,840.585,0.000,0.000,0
1507100306.920,954.089,807.685,850.455,861.970,0.000,0.000,0
1507100306.920,954.089,814.265,852.100,881.709,0.000,0.000,0
1507100306.920,848.810,812.620,838.940,855.390,0.000,0.000,0
1507100306.920,848.810,809.330,834.005,809.330,0.000,0.000,0
1507100306.920,901.449,815.910,843.875,840.585,0.000,0.000,0
1507100306.920,954.089,817.555,850.455,850.455,0.000,0.000,0
1507100306.920,901.449,819.200,843.875,843.875,0.000,0.000,0
1507100306.920,848.810,812.620,834.005,807.685,0.000,0.000,0
1507100306.920,848.810,809.330,840.585,822.490,0.000,0.000,0
1507100306.920,901.449,809.330,848.810,857.035,0.000,0.000,0
1507100306.920,901.449,814.265,847.165,866.905,0.000,0.000,0
1507100306.987,848.810,812.620,837.295,832.360,0.000,0.000,0
1507100306.987,901.449,806.040,834.005,819.200,0.000,0.000,0
1507100306.987,954.089,810.975,847.165,840.585,0.000,0.000,0
1507100306.987,1006.728,814.265,850.455,863.615,0.000,0.000,0
1507100306.987,901.449,817.555,840.585,850.455,0.000,0.000,0
1507100306.987,848.810,810.975,834.005,822.490,0.000,0.000,0
1507100306.987,901.449,810.975,842.230,848.810,0.000,0.000,0
1507100306.987,954.089,812.620,847.165,883.354,0.000,0.000,0
1507100306.987,954.089,812.620,843.875,850.455,0.000,0.000,0
1507100306.987,848.810,812.620,835.650,809.330,0.000,0.000,0
1507100306.987,848.810,806.040,837.295,806.040,0.000,0.000,0
1507100306.987,901.449,810.975,848.810,832.360,0.000,0.000,0
1507100306.987,901.449,817.555,852.100,857.035,0.000,0.000,0
1507100306.987,796.170,819.200,838.940,830.715,0.000,0.000,0
1507100306.987,796.170,817.555,835.650,824.135,0.000,0.000,0
1507100306.987,848.810,817.555,843.875,840.585,0.000,0.000,0
1507100307.048,954.089,817.555,852.100,871.840,0.000,0.000,0
1507100307.048,954.089,817.555,848.810,860.325,0.000,0.000,0
1507100307.048,848.810,814.265,838.940,819.200,0.000,0.000,0
1507100307.048,901.449,810.975,843.875,837.295,0.000,0.000,0
1507100307.048,954.089,815.910,853.745,858.680,0.000,0.000,0
1507100307.048,954.089,820.845,853.745,873.485,0.000,0.000,0
1507100307.048,848.810,815.910,840.585,843.875,0.000,0.000,0
1507100307.048,848.810,806.040,838.940,822.490,0.000,0.000,0
1507100307.048,901.449,810.975,847.165,838.940,0.000,0.000,0
1507100307.048,954.089,819.200,857.035,855.390,0.000,0.000,0
1507100307.048,901.449,824.135,850.455,848.810,0.000,0.000,0
1507100307.048,848.810,817.555,837.295,829.070,0.000,0.000,0
1507100307.048,848.810,812.620,842.230,825.780,0.000,0.000,0
1507100307.048,901.449,820.845,848.810,848.810,0.000,0.000,0
1507100307.048,901.449,822.490,848.810,865.260,0.000,0.000,0
1507100307.048,796.170,815.910,834.005,824.135,0.000,0.000,0
1507100307.134,848.810,812.620,837.295,817.555,0.000,0.000,0
1507100307.134,901.449,810.975,848.810,843.875,0.000,0.000,0
1507100307.134,954.089,822.490,853.745,866.905,0.000,0.000,0
1507100307.134,848.810,820.845,847.165,843.875,0.000,0.000,0
1507100307.134,848.810,814.265,835.650,838.940,0.000,0.000,0
1507100307.134,901.449,815.910,842.230,842.230,0.000,0.000,0
1507100307.134,954.089,822.490,850.455,870.195,0.000,0.000,0
1507100307.134,901.449,824.135,847.165,868.550,0.000,0.000,0
1507100307.134,848.810,812.620,838.940,820.845,0.000,0.000,0
1507100307.134,848.810,807.685,842.230,827.425,0.000,0.000,0
1507100307.134,901.449,810.975,850.455,847.165,0.000,0.000,0
1507100307.134,901.449,820.845,853.745,863.615,0.000,0.000,0
1507100307.134,796.170,822.490,845.520,837.295,0.000,0.000,0
1507100307.134,796.170,814.265,837.295,820.845,0.000,0.000,0
1507100307.134,848.810,812.620,845.520,830.715,0.000,0.000,0
1507100307.134,901.449,817.555,853.745,860.325,0.000,0.000,0
1507100307.198,901.449,820.845,850.455,847.165,0.000,0.000,0
1507100307.198,901.449,815.910,842.230,820.845,0.000,0.000,0
1507100307.198,901.449,806.040,843.875,834.005,0.000,0.000,0
1507100307.198,954.089,812.620,852.100,852.100,0.000,0.000,0
1507100307.198,954.089,817.555,853.745,855.390,0.000,0.000,0
1507100307.198,848.810,815.910,842.230,820.845,0.000,0.000,0
1507100307.198,848.810,812.620,842.230,819.200,0.000,0.000,0
1507100307.198,901.449,810.975,850.455,853.745,0.000,0.000,0
1507100307.198,901.449,815.910,855.390,852.100,0.000,0.000,0
1507100307.198,848.810,825.780,847.165,829.070,0.000,0.000,0
1507100307.198,796.170,812.620,840.585,807.685,0.000,0.000,0
1507100307.198,848.810,809.330,845.520,817.555,0.000,0.000,0
1507100307.198,901.449,814.265,852.100,853.745,0.000,0.000,0
1507100307.198,901.449,820.845,852.100,863.615,0.000,0.000,0
1507100307.198,796.170,815.910,840.585,837.295,0.000,0.000,0
1507100307.198,796.170,812.620,840.585,820.845,0.000,0.000,0
1507100307.280,954.089,814.265,853.745,861.970,0.000,0.000,0
1507100307.280,954.089,814.265,853.745,858.680,0.000,0.000,0
1507100307.280,848.810,817.555,843.875,835.650,0.000,0.000,0
1507100307.280,848.810,804.395,837.295,822.490,0.000,0.000,0
1507100307.280,901.449,810.975,845.520,824.135,0.000,0.000,0
1507100307.280,954.089,820.845,855.390,875.130,0.000,0.000,0
1507100307.280,901.449,817.555,847.165,850.455,0.000,0.000,0
1507100307.280,848.810,812.620,840.585,824.135,0.000,0.000,0
1507100307.280,848.810,807.685,842.230,832.360,0.000,0.000,0
1507100307.280,901.449,815.910,847.165,829.070,0.000,0.000,0
1507100307.280,901.449,825.780,852.100,860.325,0.000,0.000,0
1507100307.280,796.170,815.910,837.295,842.230,0.000,0.000,0
1507100307.280,796.170,809.330,837.295,814.265,0.000,0.000,0
1507100307.280,848.810,814.265,847.165,840.585,0.000,0.000,0
1507100307.280,901.449,819.200,852.100,865.260,0.000,0.000,0
1507100307.280,848.810,817.555,845.520,840.585,0.000,0.000,0
1507100307.348,796.170,807.685,832.360,815.910,0.000,0.000,0
1507100307.348,848.810,810.975,843.875,822.490,0.000,0.000,0
1507100307.348,901.449,809.330,848.810,843.875,0.000,0.000,0
1507100307.348,901.449,815.910,845.520,842.230,0.000,0.000,0
1507100307.348,848.810,814.265,840.585,832.360,0.000,0.000,0
1507100307.348,848.810,810.975,837.295,817.555,0.000,0.000,0
1507100307.348,901.449,817.555,845.520,843.875,0.000,0.000,0
1507100307.348,954.089,819.200,847.165,870.195,0.000,0.000,0
1507100307.348,848.810,815.910,835.650,829.070,0.000,0.000,0
1507100307.348,848.810,807.685,832.360,801.105,0.000,0.000,0
1507100307.348,901.449,806.040,843.875,837.295,0.000,0.000,0
1507100307.348,954.089,807.685,850.455,847.165,0.000,0.000,0
1507100307.348,954.089,817.555,845.520,863.615,0.000,0.000,0
1507100307.348,848.810,810.975,832.360,825.780,0.000,0.000,0
1507100307.348,848.810,809.330,840.585,830.715,0.000,0.000,0
1507100307.348,901.449,809.330,848.810,848.810,0.000,0.000,0
1507100307.348,912.964,815.910,852.100,863.615,0.000,0.000,0
1507100307.414,807.685,819.200,842.230,830.715,0.000,0.000,0
1507100307.414,807.685,810.975,834.005,806.040,0.000,0.000,0
1507100307.414,860.325,810.975,843.875,827.425,0.000,0.000,0
1507100307.414,912.964,815.910,850.455,855.390,0.000,0.000,0
1507100307.414,860.325,820.845,845.520,842.230,0.000,0.000,0
1507100307.414,807.685,807.685,834.005,832.360,0.000,0.000,0
1507100307.414,807.685,806.040,837.295,824.135,0.000,0.000,0
1507100307.414,860.325,814.265,852.100,843.875,0.000,0.000,0
1507100307.414,860.325,819.200,850.455,850.455,0.000,0.000,0
1507100307.414,755.046,819.200,840.585,807.685,0.000,0.000,0
1507100307.414,755.046,806.040,837.295,825.780,0.000,0.000,0
1507100307.414,807.685,810.975,845.520,843.875,0.000,0.000,0
1507100307.414,860.325,812.620,848.810,863.615,0.000,0.000,0
1507100307.414,755.046,809.330,842.230,835.650,0.000,0.000,0
1507100307.414,755.046,806.040,834.005,815.910,0.000,0.000,0
1507100307.414,807.685,807.685,842.230,827.425,0.000,0.000,0
1507100307.496,912.964,815.910,852.100,858.680,0.000,0.000,0
1507100307.496,912.964,819.200,845.520,858.680,0.000,0.000,0
1507100307.496,807.685,806.040,837.295,819.200,0.000,0.000,0
1507100307.496,807.685,801.105,838.940,814.265,0.000,0.000,0
1507100307.496,912.964,806.040,850.455,848.810,0.000,0.000,0
1507100307.496,912.964,809.330,853.745,850.455,0.000,0.000,0
1507100307.496,807.685,814.265,845.520,838.940,0.000,0.000,0
1507100307.496,807.685,806.040,837.295,806.040,0.000,0.000,0
1507100307.496,860.325,810.975,845.520,829.070,0.000,0.000,0
1507100307.496,912.964,814.265,852.100,861.970,0.000,0.000,0
1507100307.496,860.325,815.910,845.520,848.810,0.000,0.000,0
1507100307.496,807.685,814.265,834.005,815.910,0.000,0.000,0
1507100307.496,807.685,810.975,838.940,820.845,0.000,0.000,0
1507100307.496,860.325,814.265,852.100,850.455,0.000,0.000,0
1507100307.496,860.325,817.555,853.745,855.390,0.000,0.000,0
1507100307.496,755.046,812.620,840.585,812.620,0.000,0.000,0
1507100307.564,755.046,809.330,834.005,812.620,0.000,0.000,0
1507100307.564,807.685,815.910,842.230,835.650,0.000,0.000,0
1507100307.564,860.325,819.200,848.810,866.905,0.000,0.000,0
1507100307.564,807.685,815.910,845.520,855.390,0.000,0.000,0
1507100307.564,755.046,804.395,838.940,827.425,0.000,0.000,0
1507100307.564,807.685,809.330,843.875,840.585,0.000,0.000,0
1507100307.564,912.964,815.910,853.745,889.934,0.000,0.000,0
1507100307.564,912.964,817.555,850.455,875.130,0.000,0.000,0
1507100307.564,807.685,814.265,837.295,829.070,0.000,0.000,0
1507100307.564,807.685,806.040,835.650,827.425,0.000,0.000,0
1507100307.564,860.325,815.910,847.165,835.650,0.000,0.000,0
1507100307.564,912.964,829.070,853.745,870.195,0.000,0.000,0
1507100307.564,807.685,822.490,843.875,842.230,0.000,0.000,0
1507100307.564,807.685,809.330,838.940,809.330,0.000,0.000,0
1507100307.564,860.325,807.685,843.875,837.295,0.000,0.000,0
1507100307.564,912.964,815.910,848.810,860.325,0.000,0.000,0
1507100307.648,912.964,820.845,845.520,858.680,0.000,0.000,0
1507100307.648,860.325,815.910,834.005,822.490,0.000,0.000,0
1507100307.648,860.325,814.265,838.940,827.425,0.000,0.000,0
1507100307.648,912.964,814.265,847.165,855.390,0.000,0.000,0
1507100307.648,912.964,820.845,847.165,855.390,0.000,0.000,0
1507100307.648,807.685,815.910,842.230,848.810,0.000,0.000,0
1507100307.648,807.685,802.750,837.295,809.330,0.000,0.000,0
1507100307.648,860.325,809.330,847.165,837.295,0.000,0.000,0
1507100307.648,912.964,814.265,852.100,860.325,0.000,0.000,0
1507100307.648,860.325,825.780,845.520,845.520,0.000,0.000,0
1507100307.648,807.685,817.555,835.650,825.780,0.000,0.000,0
1507100307.648,860.325,815.910,840.585,827.425,0.000,0.000,0
1507100307.648,912.964,809.330,848.810,852.100,0.000,0.000,0
1507100307.648,912.964,812.620,847.165,870.195,0.000,0.000,0
1507100307.648,807.685,814.265,838.940,838.940,0.000,0.000,0
1507100307.648,807.685,810.975,840.585,842.230,0.000,0.000,0
1507100307.714,912.964,815.910,847.165,857.035,0.000,0.000,0
1507100307.714,912.964,817.555,852.100,847.165,0.000,0.000,0
1507100307.714,860.325,822.490,843.875,842.230,0.000,0.000,0
1507100307.714,807.685,815.910,835.650,806.040,0.000,0.000,0
1507100307.714,860.325,817.555,840.585,824.135,0.000,0.000,0
1507100307.714,912.964,810.975,848.810,868.550,0.000,0.000,0
1507100307.714,912.964,819.200,845.520,861.970,0.000,0.000,0
1507100307.714,860.325,815.910,838.940,834.005,0.000,0.000,0
1507100307.714,860.325,812.620,838.940,815.910,0.000,0.000,0
1507100307.714,912.964,820.845,847.165,832.360,0.000,0.000,0
1507100307.714,912.964,819.200,850.455,858.680,0.000,0.000,0
1507100307.714,807.685,814.265,840.585,838.940,0.000,0.000,0
1507100307.714,807.685,810.975,837.295,825.780,0.000,0.000,0
1507100307.714,860.325,806.040,847.165,848.810,0.000,0.000,0
1507100307.714,912.964,812.620,852.100,870.195,0.000,0.000,0
1507100307.714,860.325,822.490,845.520,857.035,0.000,0.000,0
1507100307.808,807.685,815.910,837.295,829.070,0.000,0.000,0
1507100307.808,807.685,814.265,840.585,822.490,0.000,0.000,0
1507100307.808,860.325,815.910,850.455,847.165,0.000,0.000,0
1507100307.808,860.325,819.200,852.100,858.680,0.000,0.000,0
1507100307.808,755.046,822.490,842.230,829.070,0.000,0.000,0
1507100307.808,755.046,809.330,838.940,810.975,0.000,0.000,0
1507100307.808,807.685,809.330,843.875,840.585,0.000,0.000,0
1507100307.808,860.325,817.555,850.455,855.390,0.000,0.000,0
1507100307.808,807.685,820.845,842.230,835.650,0.000,0.000,0
1507100307.808,755.046,814.265,834.005,806.040,0.000,0.000,0
1507100307.808,807.685,812.620,843.875,815.910,0.000,0.000,0
1507100307.808,912.964,815.910,853.745,866.905,0.000,0.000,0
1507100307.808,912.964,822.490,848.810,855.390,0.000,0.000,0
1507100307.808,807.685,815.910,838.940,824.135,0.000,0.000,0
1507100307.808,807.685,814.265,838.940,820.845,0.000,0.000,0
1507100307.808,860.325,812.620,848.810,845.520,0.000,0.000,0
1507100307.864,912.964,812.620,853.745,861.970,0.000,0.000,0
1507100307.864,807.685,819.200,843.875,830.715,0.000,0.000,0
1507100307.864,807.685,810.975,837.295,825.780,0.000,0.000,0
1507100307.864,860.325,810.975,847.165,825.780,0.000,0.000,0
1507100307.864,912.964,822.490,857.035,876.775,0.000,0.000,0
1507100307.864,860.325,822.490,850.455,865.260,0.000,0.000,0
1507100307.864,755.046,809.330,837.295,815.910,0.000,0.000,0
1507100307.864,755.046,810.975,838.940,827.425,0.000,0.000,0
1507100307.864,860.325,819.200,848.810,861.970,0.000,0.000,0
1507100307.864,860.325,820.845,852.100,878.419,0.000,0.000,0
1507100307.864,755.046,819.200,840.585,834.005,0.000,0.000,0
1507100307.864,755.046,810.975,835.650,829.070,0.000,0.000,0
1507100307.864,807.685,810.975,842.230,835.650,0.000,0.000,0
1507100307.864,860.325,820.845,848.810,855.390,0.000,0.000,0
1507100307.864,807.685,820.845,845.520,857.035,0.000,0.000,0
1507100307.864,755.046,812.620,837.295,814.265,0.000,0.000,0
1507100307.932,860.325,814.265,838.940,830.715,0.000,0.000,0
1507100307.932,965.603,819.200,847.165,865.260,0.000,0.000,0
1507100307.932,965.603,822.490,847.165,863.615,0.000,0.000,0
1507100307.932,860.325,822.490,835.650,817.555,0.000,0.000,0
1507100307.932,860.325,814.265,838.940,812.620,0.000,0.000,0
1507100307.932,912.964,814.265,845.520,842.230,0.000,0.000,0
1507100307.932,912.964,817.555,853.745,875.130,0.000,0.000,0
1507100307.932,860.325,815.910,847.165,870.195,0.000,0.000,0
1507100307.932,807.685,812.620,834.005,814.265,0.000,0.000,0
1507100307.932,860.325,815.910,842.230,827.425,0.000,0.000,0
1507100307.932,912.964,822.490,850.455,866.905,0.000,0.000,0
1507100307.932,912.964,822.490,848.810,863.615,0.000,0.000,0
1507100307.932,860.325,815.910,840.585,835.650,0.000,0.000,0
1507100307.932,860.325,814.265,840.585,820.845,0.000,0.000,0
1507100307.932,912.964,812.620,848.810,840.585,0.000,0.000,0
1507100307.932,912.964,817.555,852.100,850.455,0.000,0.000,0
1507100307.932,814.265,819.200,842.230,832.360,0.000,0.000,0
1507100308.014,866.905,810.975,834.005,817.555,0.000,0.000,0
1507100308.014,972.183,814.265,840.585,832.360,0.000,0.000,0
1507100308.014,1024.823,822.490,848.810,870.195,0.000,0.000,0
1507100308.014,972.183,822.490,845.520,858.680,0.000,0.000,0
1507100308.014,919.544,814.265,837.295,832.360,0.000,0.000,0
1507100308.014,919.544,812.620,840.585,845.520,0.000,0.000,0
1507100308.014,972.183,807.685,848.810,852.100,0.000,0.000,0
1507100308.014,972.183,820.845,847.165,863.615,0.000,0.000,0
1507100308.014,866.905,815.910,837.295,830.715,0.000,0.000,0
1507100308.014,866.905,809.330,834.005,819.200,0.000,0.000,0
1507100308.014,919.544,815.910,843.875,845.520,0.000,0.000,0
1507100308.014,972.183,815.910,848.810,860.325,0.000,0.000,0
1507100308.014,919.544,820.845,842.230,832.360,0.000,0.000,0
1507100308.014,866.905,810.975,830.715,812.620,0.000,0.000,0
1507100308.014,866.905,807.685,837.295,822.490,0.000,0.000,0
1507100308.014,919.544,815.910,847.165,876.775,0.000,0.000,0
1507100308.078,919.544,819.200,845.520,881.709,0.000,0.000,0
1507100308.078,814.265,817.555,835.650,837.295,0.000,0.000,0
1507100308.078,814.265,810.975,835.650,834.005,0.000,0.000,0
1507100308.078,866.905,814.265,843.875,829.070,0.000,0.000,0
1507100308.078,919.544,824.135,850.455,858.680,0.000,0.000,0
1507100308.078,814.265,814.265,837.295,830.715,0.000,0.000,0
1507100308.078,814.265,807.685,832.360,809.330,0.000,0.000,0
1507100308.078,866.905,812.620,838.940,842.230,0.000,0.000,0
1507100308.078,919.544,814.265,847.165,863.615,0.000,0.000,0
1507100308.078,866.905,822.490,845.520,848.810,0.000,0.000,0
1507100308.078,814.265,815.910,835.650,814.265,0.000,0.000,0
1507100308.078,814.265,810.975,843.875,819.200,0.000,0.000,0
1507100308.078,866.905,819.200,850.455,858.680,0.000,0.000,0
1507100308.078,866.905,829.070,852.100,881.709,0.000,0.000,0
1507100308.078,761.626,819.200,837.295,827.425,0.000,0.000,0
1507100308.078,761.626,810.975,832.360,806.040,0.000,0.000,0
1507100308.144,866.905,812.620,843.875,837.295,0.000,0.000,0
1507100308.144,972.183,817.555,857.035,875.130,0.000,0.000,0
1507100308.144,919.544,822.490,850.455,857.035,0.000,0.000,0
1507100308.144,866.905,812.620,838.940,822.490,0.000,0.000,0
1507100308.144,866.905,812.620,843.875,814.265,0.000,0.000,0
1507100308.144,919.544,819.200,850.455,868.550,0.000,0.000,0
1507100308.144,919.544,824.135,850.455,876.775,0.000,0.000,0
1507100308.144,814.265,814.265,837.295,829.070,0.000,0.000,0
1507100308.144,814.265,807.685,832.360,819.200,0.000,0.000,0
1507100308.144,866.905,810.975,840.585,829.070,0.000,0.000,0
1507100308.144,919.544,814.265,850.455,878.419,0.000,0.000,0
1507100308.144,814.265,815.910,840.585,838.940,0.000,0.000,0
1507100308.144,814.265,809.330,829.070,806.040,0.000,0.000,0
1507100308.144,814.265,809.330,835.650,809.330,0.000,0.000,0
1507100308.144,866.905,817.555,843.875,850.455,0.000,0.000,0
1507100308.144,866.905,820.845,845.520,866.905,0.000,0.000,0
1507100308.230,814.265,812.620,834.005,824.135,0.000,0.000,0
1507100308.230,866.905,807.685,832.360,810.975,0.000,0.000,0
1507100308.230,919.544,817.555,843.875,837.295,0.000,0.000,0
1507100308.230,919.544,822.490,843.875,853.745,0.000,0.000,0
1507100308.230,814.265,822.490,835.650,835.650,0.000,0.000,0
1507100308.230,814.265,809.330,829.070,804.395,0.000,0.000,0
1507100308.230,866.905,809.330,837.295,829.070,0.000,0.000,0
1507100308.230,919.544,814.265,848.810,863.615,0.000,0.000,0
1507100308.230,866.905,819.200,845.520,843.875,0.000,0.000,0
1507100308.230,814.265,815.910,835.650,830.715,0.000,0.000,0
1507100308.230,814.265,807.685,837.295,820.845,0.000,0.000,0
1507100308.230,919.544,815.910,845.520,855.390,0.000,0.000,0
1507100308.230,919.544,819.200,843.875,870.195,0.000,0.000,0
1507100308.230,814.265,814.265,835.650,832.360,0.000,0.000,0
1507100308.230,814.265,806.040,832.360,827.425,0.000,0.000,0
1507100308.230,866.905,809.330,843.875,835.650,0.000,0.000,0
1507100308.294,866.905,819.200,850.455,866.905,0.000,0.000,0
1507100308.294,814.265,819.200,840.585,845.520,0.000,0.000,0
1507100308.294,761.626,809.330,835.650,810.975,0.000,0.000,0
1507100308.294,814.265,804.395,838.940,829.070,0.000,0.000,0
1507100308.294,866.905,814.265,848.810,861.970,0.000,0.000,0
1507100308.294,866.905,819.200,848.810,858.680,0.000,0.000,0
1507100308.294,814.265,815.910,835.650,830.715,0.000,0.000,0
1507100308.294,814.265,806.040,835.650,825.780,0.000,0.000,0
1507100308.294,866.905,810.975,847.165,845.520,0.000,0.000,0
1507100308.294,866.905,817.555,850.455,873.485,0.000,0.000,0
1507100308.294,761.626,815.910,840.585,845.520,0.000,0.000,0
1507100308.294,761.626,807.685,834.005,819.200,0.000,0.000,0
1507100308.294,814.265,807.685,843.875,834.005,0.000,0.000,0
1507100308.294,866.905,814.265,852.100,858.680,0.000,0.000,0
1507100308.294,814.265,817.555,847.165,850.455,0.000,0.000,0
1507100308.294,761.626,810.975,838.940,829.070,0.000,0.000,0
1507100308.360,814.265,806.040,838.940,825.780,0.000,0.000,0
1507100308.360,919.544,815.910,852.100,876.775,0.000,0.000,0
1507100308.360,919.544,815.910,852.100,893.224,0.000,0.000,0
1507100308.360,814.265,814.265,837.295,834.005,0.000,0.000,0
1507100308.360,814.265,809.330,834.005,814.265,0.000,0.000,0
1507100308.360,866.905,809.330,842.230,843.875,0.000,0.000,0
1507100308.360,919.544,812.620,848.810,852.100,0.000,0.000,0
1507100308.360,866.905,815.910,842.230,842.230,0.000,0.000,0
1507100308.360,814.265,809.330,834.005,820.845,0.000,0.000,0
1507100308.360,814.265,810.975,837.295,824.135,0.000,0.000,0
1507100308.360,919.544,817.555,848.810,873.485,0.000,0.000,0
1507100308.360,919.544,820.845,848.810,873.485,0.000,0.000,0
1507100308.360,814.265,812.620,838.940,830.715,0.000,0.000,0
1507100308.360,814.265,815.910,840.585,819.200,0.000,0.000,0
1507100308.360,866.905,819.200,852.100,857.035,0.000,0.000,0
1507100308.360,919.544,815.910,852.100,884.999,0.000,0.000,0
1507100308.444,866.905,819.200,842.230,848.810,0.000,0.000,0
1507100308.444,866.905,814.265,834.005,819.200,0.000,0.000,0
1507100308.444,919.544,810.975,840.585,827.425,0.000,0.000,0
1507100308.444,972.183,817.555,850.455,852.100,0.000,0.000,0
1507100308.444,972.183,819.200,845.520,855.390,0.000,0.000,0
1507100308.444,866.905,809.330,837.295,817.555,0.000,0.000,0
1507100308.444,866.905,809.330,843.875,832.360,0.000,0.000,0
1507100308.444,919.544,815.910,848.810,848.810,0.000,0.000,0
1507100308.444,919.544,817.555,852.100,855.390,0.000,0.000,0
1507100308.444,814.265,819.200,840.585,832.360,0.000,0.000,0
1507100308.444,814.265,807.685,835.650,806.040,0.000,0.000,0
1507100308.444,866.905,809.330,845.520,843.875,0.000,0.000,0
1507100308.444,919.544,812.620,855.390,881.709,0.000,0.000,0
1507100308.444,866.905,814.265,850.455,855.390,0.000,0.000,0
1507100308.444,814.265,812.620,840.585,824.135,0.000,0.000,0
1507100308.444,814.265,810.975,843.875,820.845,0.000,0.000,0
1507100308.510,919.544,814.265,853.745,855.390,0.000,0.000,0
1507100308.510,919.544,819.200,853.745,873.485,0.000,0.000,0
1507100308.510,814.265,814.265,842.230,829.070,0.000,0.000,0
1507100308.510,814.265,806.040,842.230,807.685,0.000,0.000,0
1507100308.510,866.905,814.265,852.100,853.745,0.000,0.000,0
1507100308.510,919.544,817.555,853.745,866.905,0.000,0.000,0
1507100308.510,866.905,820.845,843.875,852.100,0.000,0.000,0
1507100308.510,814.265,812.620,834.005,814.265,0.000,0.000,0
1507100308.510,866.905,812.620,842.230,817.555,0.000,0.000,0
1507100308.510,919.544,817.555,850.455,853.745,0.000,0.000,0
1507100308.510,919.544,815.910,848.810,847.165,0.000,0.000,0
1507100308.510,814.265,815.910,835.650,827.425,0.000,0.000,0
1507100308.510,814.265,812.620,837.295,819.200,0.000,0.000,0
1507100308.510,866.905,810.975,850.455,848.810,0.000,0.000,0
1507100308.510,866.905,820.845,848.810,855.390,0.000,0.000,0
1507100308.510,814.265,820.845,838.940,827.425,0.000,0.000,0
1507100308.510,759.981,809.330,832.360,799.460,0.000,0.000,0
1507100308.593,865.260,815.910,845.520,842.230,0.000,0.000,0
1507100308.593,970.538,812.620,850.455,863.615,0.000,0.000,0
1507100308.593,970.538,819.200,845.520,853.745,0.000,0.000,0
1507100308.593,917.899,817.555,834.005,832.360,0.000,0.000,0
1507100308.593,917.899,810.975,837.295,838.940,0.000,0.000,0
1507100308.593,970.538,810.975,847.165,861.970,0.000,0.000,0
1507100308.593,970.538,819.200,845.520,878.419,0.000,0.000,0
1507100308.593,865.260,817.555,830.715,824.135,0.000,0.000,0
1507100308.593,865.260,812.620,827.425,797.815,0.000,0.000,0
1507100308.593,917.899,814.265,838.940,838.940,0.000,0.000,0
1507100308.593,970.538,817.555,848.810,860.325,0.000,0.000,0
1507100308.593,917.899,817.555,840.585,842.230,0.000,0.000,0
1507100308.593,865.260,814.265,832.360,815.910,0.000,0.000,0
1507100308.593,865.260,812.620,837.295,830.715,0.000,0.000,0
1507100308.593,917.899,814.265,842.230,857.035,0.000,0.000,0
1507100308.593,917.899,820.845,845.520,858.680,0.000,0.000,0
1507100308.661,865.260,812.620,834.005,829.070,0.000,0.000,0
1507100308.661,865.260,810.975,835.650,819.200,0.000,0.000,0
1507100308.661,917.899,810.975,847.165,847.165,0.000,0.000,0
1507100308.661,970.538,815.910,853.745,873.485,0.000,0.000,0
1507100308.661,917.899,819.200,845.520,855.390,0.000,0.000,0
1507100308.661,865.260,802.750,834.005,815.910,0.000,0.000,0
1507100308.661,917.899,807.685,845.520,843.875,0.000,0.000,0
1507100308.661,970.538,809.330,848.810,858.680,0.000,0.000,0
1507100308.661,917.899,814.265,848.810,843.875,0.000,0.000,0
1507100308.661,865.260,810.975,838.940,815.910,0.000,0.000,0
1507100308.661,865.260,806.040,838.940,815.910,0.000,0.000,0
1507100308.661,917.899,812.620,848.810,848.810,0.000,0.000,0
1507100308.661,917.899,814.265,848.810,863.615,0.000,0.000,0
1507100308.661,812.620,809.330,838.940,837.295,0.000,0.000,0
1507100308.661,812.620,812.620,832.360,810.975,0.000,0.000,0
1507100308.661,865.260,814.265,843.875,843.875,0.000,0.000,0
1507100308.743,970.538,819.200,853.745,873.485,0.000,0.000,0
1507100308.743,917.899,822.490,848.810,855.390,0.000,0.000,0
1507100308.743,865.260,812.620,837.295,827.425,0.000,0.000,0
1507100308.743,865.260,809.330,840.585,830.715,0.000,0.000,0
1507100308.743,917.899,809.330,845.520,852.100,0.000,0.000,0
1507100308.743,917.899,815.910,850.455,871.840,0.000,0.000,0
1507100308.743,812.620,809.330,840.585,824.135,0.000,0.000,0
1507100308.743,812.620,807.685,837.295,815.910,0.000,0.000,0
1507100308.743,865.260,812.620,850.455,860.325,0.000,0.000,0
1507100308.743,917.899,814.265,853.745,876.775,0.000,0.000,0
1507100308.743,865.260,819.200,845.520,855.390,0.000,0.000,0
1507100308.743,812.620,812.620,837.295,824.135,0.000,0.000,0
1507100308.743,812.620,812.620,843.875,829.070,0.000,0.000,0
1507100308.743,865.260,810.975,855.390,853.745,0.000,0.000,0
1507100308.743,865.260,819.200,855.390,858.680,0.000,0.000,0
1507100308.743,759.981,814.265,837.295,824.135,0.000,0.000,0
1507100308.812,812.620,809.330,838.940,815.910,0.000,0.000,0
1507100308.812,917.899,815.910,848.810,850.455,0.000,0.000,0
1507100308.812,970.538,820.845,850.455,868.550,0.000,0.000,0
1507100308.812,917.899,822.490,843.875,840.585,0.000,0.000,0
1507100308.812,917.899,810.975,837.295,810.975,0.000,0.000,0
1507100308.812,970.538,812.620,845.520,835.650,0.000,0.000,0
1507100308.812,1023.178,820.845,855.390,855.390,0.000,0.000,0
1507100308.812,970.538,824.135,847.165,863.615,0.000,0.000,0
1507100308.812,865.260,810.975,832.360,822.490,0.000,0.000,0
1507100308.812,865.260,809.330,837.295,815.910,0.000,0.000,0
1507100308.812,917.899,815.910,850.455,857.035,0.000,0.000,0
1507100308.812,917.899,819.200,853.745,855.390,0.000,0.000,0
1507100308.812,812.620,824.135,843.875,845.520,0.000,0.000,0
1507100308.812,812.620,809.330,835.650,814.265,0.000,0.000,0
1507100308.812,865.260,810.975,843.875,832.360,0.000,0.000,0
1507100308.812,917.899,817.555,847.165,857.035,0.000,0.000,0
1507100308.875,865.260,817.555,843.875,853.745,0.000,0.000,0
1507100308.875,812.620,810.975,840.585,825.780,0.000,0.000,0
1507100308.875,812.620,810.975,843.875,825.780,0.000,0.000,0
1507100308.875,917.899,814.265,858.680,863.615,0.000,0.000,0
1507100308.875,917.899,819.200,853.745,861.970,0.000,0.000,0
1507100308.875,812.620,819.200,840.585,830.715,0.000,0.000,0
1507100308.875,812.620,814.265,840.585,845.520,0.000,0.000,0
1507100308.875,865.260,814.265,847.165,842.230,0.000,0.000,0
1507100308.875,917.899,817.555,853.745,868.550,0.000,0.000,0
1507100308.875,865.260,819.200,847.165,853.745,0.000,0.000,0
1507100308.875,812.620,815.910,837.295,819.200,0.000,0.000,0
1507100308.875,865.260,812.620,840.585,834.005,0.000,0.000,0
1507100308.875,917.899,814.265,850.455,863.615,0.000,0.000,0
1507100308.875,917.899,819.200,845.520,861.970,0.000,0.000,0
1507100308.875,812.620,810.975,835.650,820.845,0.000,0.000,0
1507100308.875,812.620,807.685,842.230,817.555,0.000,0.000,0
1507100308.959,865.260,815.910,852.100,847.165,0.000,0.000,0
1507100308.959,865.260,819.200,857.035,857.035,0.000,0.000,0
1507100308.959,759.981,824.135,845.520,847.165,0.000,0.000,0
1507100308.959,759.981,812.620,837.295,820.845,0.000,0.000,0
1507100308.959,812.620,812.620,843.875,840.585,0.000,0.000,0
1507100308.959,865.260,822.490,852.100,871.840,0.000,0.000,0
1507100308.959,812.620,815.910,848.810,845.520,0.000,0.000,0
1507100308.959,759.981,809.330,840.585,830.715,0.000,0.000,0
1507100308.959,759.981,807.685,838.940,810.975,0.000,0.000,0
1507100308.959,865.260,814.265,850.455,850.455,0.000,0.000,0
1507100308.959,865.260,822.490,848.810,858.680,0.000,0.000,0
1507100308.959,759.981,814.265,837.295,829.070,0.000,0.000,0
1507100308.959,759.981,806.040,838.940,819.200,0.000,0.000,0
1507100308.959,812.620,812.620,850.455,845.520,0.000,0.000,0
1507100308.959,865.260,817.555,853.745,873.485,0.000,0.000,0
1507100308.959,812.620,810.975,847.165,847.165,0.000,0.000,0
1507100309.038,812.620,806.040,837.295,810.975,0.000,0.000,0
1507100309.038,917.899,806.040,842.230,825.780,0.000,0.000,0
1507100309.038,1023.178,819.200,853.745,853.745,0.000,0.000,0
1507100309.038,1023.178,820.845,852.100,852.100,0.000,0.000,0
1507100309.038,917.899,802.750,842.230,824.135,0.000,0.000,0
1507100309.038,917.899,801.105,840.585,814.265,0.000,0.000,0
1507100309.038,970.538,807.685,847.165,837.295,0.000,0.000,0
1507100309.038,970.538,819.200,852.100,873.485,0.000,0.000,0
1507100309.038,865.260,819.200,837.295,829.070,0.000,0.000,0
1507100309.038,865.260,815.910,835.650,815.910,0.000,0.000,0
1507100309.038,917.899,810.975,845.520,834.005,0.000,0.000,0
1507100309.038,970.538,814.265,853.745,857.035,0.000,0.000,0
1507100309.038,917.899,815.910,848.810,857.035,0.000,0.000,0
1507100309.038,812.620,806.040,835.650,814.265,0.000,0.000,0
1507100309.038,865.260,807.685,838.940,848.810,0.000,0.000,0
1507100309.038,917.899,814.265,845.520,858.680,0.000,0.000,0
1507100309.093,970.538,817.555,847.165,853.745,0.000,0.000,0
1507100309.093,865.260,819.200,837.295,834.005,0.000,0.000,0
1507100309.093,865.260,810.975,834.005,801.105,0.000,0.000,0
1507100309.093,917.899,810.975,843.875,847.165,0.000,0.000,0
1507100309.093,970.538,815.910,850.455,870.195,0.000,0.000,0
1507100309.093,917.899,817.555,842.230,855.390,0.000,0.000,0
1507100309.093,865.260,809.330,830.715,827.425,0.000,0.000,0
1507100309.093,865.260,804.395,835.650,814.265,0.000,0.000,0
1507100309.093,917.899,810.975,847.165,848.810,0.000,0.000,0
1507100309.093,917.899,814.265,848.810,863.615,0.000,0.000,0
1507100309.093,812.620,810.975,837.295,817.555,0.000,0.000,0
1507100309.093,812.620,806.040,837.295,822.490,0.000,0.000,0
1507100309.093,865.260,802.750,840.585,842.230,0.000,0.000,0
1507100309.093,865.260,814.265,847.165,857.035,0.000,0.000,0
1507100309.093,812.620,815.910,842.230,861.970,0.000,0.000,0
1507100309.093,759.981,804.395,834.005,832.360,0.000,0.000,0
1507100309.093,835.650,809.330,842.230,837.295,0.000,0.000,0
1507100309.177,940.929,814.265,848.810,847.165,0.000,0.000,0
1507100309.177,940.929,820.845,845.520,861.970,0.000,0.000,0
1507100309.177,835.650,810.975,834.005,815.910,0.000,0.000,0
1507100309.177,835.650,806.040,835.650,829.070,0.000,0.000,0
1507100309.177,888.289,807.685,840.585,857.035,0.000,0.000,0
1507100309.177,888.289,814.265,843.875,853.745,0.000,0.000,0
1507100309.177,783.011,819.200,835.650,838.940,0.000,0.000,0
1507100309.177,783.011,807.685,834.005,820.845,0.000,0.000,0
1507100309.177,835.650,810.975,842.230,830.715,0.000,0.000,0
1507100309.177,888.289,817.555,850.455,865.260,0.000,0.000,0
1507100309.177,835.650,814.265,845.520,857.035,0.000,0.000,0
1507100309.177,783.011,809.330,834.005,822.490,0.000,0.000,0
1507100309.177,835.650,810.975,838.940,835.650,0.000,0.000,0
1507100309.177,888.289,814.265,850.455,845.520,0.000,0.000,0
1507100309.177,888.289,817.555,850.455,853.745,0.000,0.000,0
1507100309.177,783.011,819.200,840.585,820.845,0.000,0.000,0
1507100309.242,835.650,812.620,837.295,825.780,0.000,0.000,0
1507100309.242,940.929,812.620,845.520,842.230,0.000,0.000,0
1507100309.242,993.568,819.200,855.390,863.615,0.000,0.000,0
1507100309.242,940.929,819.200,843.875,858.680,0.000,0.000,0
1507100309.242,888.289,812.620,835.650,819.200,0.000,0.000,0
1507100309.242,940.929,812.620,842.230,842.230,0.000,0.000,0
1507100309.242,993.568,815.910,852.100,871.840,0.000,0.000,0
1507100309.242,993.568,819.200,850.455,857.035,0.000,0.000,0
1507100309.242,888.289,815.910,837.295,830.715,0.000,0.000,0
1507100309.242,888.289,810.975,837.295,815.910,0.000,0.000,0
1507100309.242,940.929,810.975,848.810,842.230,0.000,0.000,0
1507100309.242,940.929,815.910,850.455,871.840,0.000,0.000,0
1507100309.242,835.650,817.555,840.585,834.005,0.000,0.000,0
1507100309.242,835.650,812.620,838.940,822.490,0.000,0.000,0
1507100309.242,888.289,807.685,845.520,837.295,0.000,0.000,0
1507100309.242,940.929,809.330,853.745,857.035,0.000,0.000,0
1507100309.326,940.929,815.910,850.455,860.325,0.000,0.000,0
1507100309.326,835.650,807.685,837.295,807.685,0.000,0.000,0
1507100309.326,888.289,809.330,842.230,822.490,0.000,0.000,0
1507100309.326,940.929,812.620,847.165,848.810,0.000,0.000,0
1507100309.326,940.929,817.555,847.165,870.195,0.000,0.000,0
1507100309.326,835.650,815.910,838.940,843.875,0.000,0.000,0
1507100309.326,835.650,810.975,832.360,809.330,0.000,0.000,0
1507100309.326,888.289,810.975,847.165,835.650,0.000,0.000,0
1507100309.326,940.929,812.620,852.100,848.810,0.000,0.000,0
1507100309.326,888.289,819.200,845.520,853.745,0.000,0.000,0
1507100309.326,835.650,809.330,837.295,819.200,0.000,0.000,0
1507100309.326,835.650,809.330,840.585,820.845,0.000,0.000,0
1507100309.326,888.289,815.910,847.165,853.745,0.000,0.000,0
1507100309.326,888.289,822.490,852.100,865.260,0.000,0.000,0
1507100309.326,783.011,815.910,840.585,829.070,0.000,0.000,0
1507100309.326,783.011,809.330,837.295,815.910,0.000,0.000,0
1507100309.392,888.289,812.620,848.810,848.810,0.000,0.000,0
1507100309.392,888.289,814.265,852.100,863.615,0.000,0.000,0
1507100309.392,835.650,822.490,845.520,838.940,0.000,0.000,0
1507100309.392,835.650,814.265,837.295,820.845,0.000,0.000,0
1507100309.392,888.289,809.330,840.585,825.780,0.000,0.000,0
1507100309.392,940.929,812.620,848.810,860.325,0.000,0.000,0
1507100309.392,940.929,820.845,847.165,863.615,0.000,0.000,0
1507100309.392,835.650,815.910,834.005,829.070,0.000,0.000,0
1507100309.392,835.650,802.750,832.360,807.685,0.000,0.000,0
1507100309.392,888.289,807.685,842.230,842.230,0.000,0.000,0
1507100309.392,888.289,814.265,843.875,860.325,0.000,0.000,0
1507100309.392,783.011,820.845,837.295,832.360,0.000,0.000,0
1507100309.392,783.011,815.910,835.650,827.425,0.000,0.000,0
1507100309.392,835.650,810.975,838.940,837.295,0.000,0.000,0
1507100309.392,888.289,815.910,845.520,847.165,0.000,0.000,0
1507100309.392,835.650,820.845,840.585,842.230,0.000,0.000,0
1507100309.458,835.650,819.200,830.715,812.620,0.000,0.000,0
1507100309.458,888.289,807.685,835.650,824.135,0.000,0.000,0
1507100309.458,993.568,810.975,845.520,853.745,0.000,0.000,0
1507100309.458,993.568,815.910,845.520,850.455,0.000,0.000,0
1507100309.458,888.289,814.265,837.295,817.555,0.000,0.000,0
1507100309.458,888.289,810.975,835.650,819.200,0.000,0.000,0
1507100309.458,940.929,812.620,842.230,845.520,0.000,0.000,0
1507100309.458,993.568,817.555,848.810,855.390,0.000,0.000,0
1507100309.458,940.929,820.845,840.585,829.070,0.000,0.000,0
1507100309.458,888.289,812.620,834.005,804.395,0.000,0.000,0
1507100309.458,888.289,809.330,837.295,815.910,0.000,0.000,0
1507100309.458,940.929,809.330,847.165,857.035,0.000,0.000,0
1507100309.458,940.929,817.555,847.165,855.390,0.000,0.000,0
1507100309.458,835.650,812.620,835.650,814.265,0.000,0.000,0
1507100309.458,835.650,809.330,838.940,827.425,0.000,0.000,0
1507100309.458,888.289,814.265,847.165,852.100,0.000,0.000,0
1507100309.540,940.929,820.845,850.455,861.970,0.000,0.000,0
1507100309.540,835.650,819.200,842.230,824.135,0.000,0.000,0
1507100309.540,835.650,810.975,834.005,814.265,0.000,0.000,0
1507100309.540,888.289,809.330,843.875,827.425,0.000,0.000,0
1507100309.540,940.929,809.330,848.810,873.485,0.000,0.000,0
1507100309.540,888.289,814.265,848.810,852.100,0.000,0.000,0
1507100309.540,835.650,810.975,835.650,814.265,0.000,0.000,0
1507100309.540,835.650,809.330,835.650,822.490,0.000,0.000,0
1507100309.540,888.289,815.910,845.520,842.230,0.000,0.000,0
1507100309.540,888.289,820.845,845.520,860.325,0.000,0.000,0
1507100309.540,783.011,814.265,835.650,829.070,0.000,0.000,0
1507100309.540,783.011,807.685,835.650,812.620,0.000,0.000,0
1507100309.540,835.650,809.330,840.585,832.360,0.000,0.000,0
1507100309.540,888.289,817.555,845.520,870.195,0.000,0.000,0
1507100309.540,835.650,819.200,835.650,847.165,0.000,0.000,0
1507100309.540,783.011,814.265,829.070,815.910,0.000,0.000,0
1507100309.608,835.650,812.620,837.295,827.425,0.000,0.000,0
1507100309.608,940.929,814.265,843.875,838.940,0.000,0.000,0
1507100309.608,940.929,815.910,845.520,855.390,0.000,0.000,0
1507100309.608,835.650,807.685,840.585,840.585,0.000,0.000,0
1507100309.608,835.650,801.105,837.295,809.330,0.000,0.000,0
1507100309.608,888.289,804.395,848.810,847.165,0.000,0.000,0
1507100309.608,940.929,814.265,852.100,871.840,0.000,0.000,0
1507100309.608,835.650,815.910,842.230,842.230,0.000,0.000,0
1507100309.608,835.650,812.620,837.295,824.135,0.000,0.000,0
1507100309.608,888.289,815.910,842.230,834.005,0.000,0.000,0
1507100309.608,940.929,819.200,847.165,842.230,0.000,0.000,0
1507100309.608,940.929,822.490,847.165,848.810,0.000,0.000,0
1507100309.608,888.289,810.975,838.940,829.070,0.000,0.000,0
1507100309.608,888.289,807.685,837.295,820.845,0.000,0.000,0
1507100309.608,940.929,815.910,842.230,842.230,0.000,0.000,0
1507100309.608,940.929,819.200,848.810,866.905,0.000,0.000,0
1507100309.674,835.650,819.200,838.940,838.940,0.000,0.000,0
1507100309.674,835.650,810.975,835.650,824.135,0.000,0.000,0
1507100309.674,888.289,812.620,843.875,847.165,0.000,0.000,0
1507100309.674,940.929,815.910,852.100,883.354,0.000,0.000,0
1507100309.674,888.289,817.555,845.520,865.260,0.000,0.000,0
1507100309.674,835.650,819.200,838.940,838.940,0.000,0.000,0
1507100309.674,835.650,812.620,840.585,825.780,0.000,0.000,0
1507100309.674,888.289,817.555,843.875,845.520,0.000,0.000,0
1507100309.674,888.289,824.135,847.165,860.325,0.000,0.000,0
1507100309.674,783.011,817.555,835.650,832.360,0.000,0.000,0
1507100309.674,783.011,815.910,834.005,827.425,0.000,0.000,0
1507100309.674,835.650,812.620,847.165,845.520,0.000,0.000,0
1507100309.674,888.289,812.620,852.100,876.775,0.000,0.000,0
1507100309.674,835.650,817.555,843.875,857.035,0.000,0.000,0
1507100309.674,783.011,812.620,835.650,815.910,0.000,0.000,0
1507100309.674,835.650,812.620,840.585,822.490,0.000,0.000,0
1507100309.674,916.254,815.910,848.810,853.745,0.000,0.000,0
1507100309.760,916.254,822.490,848.810,837.295,0.000,0.000,0
1507100309.760,863.615,819.200,835.650,819.200,0.000,0.000,0
1507100309.760,863.615,812.620,837.295,817.555,0.000,0.000,0
1507100309.760,916.254,810.975,852.100,863.615,0.000,0.000,0
1507100309.760,916.254,814.265,857.035,876.775,0.000,0.000,0
1507100309.760,863.615,820.845,843.875,852.100,0.000,0.000,0
1507100309.760,863.615,812.620,838.940,820.845,0.000,0.000,0
1507100309.760,916.254,817.555,847.165,827.425,0.000,0.000,0
1507100309.760,968.893,822.490,858.680,873.485,0.000,0.000,0
1507100309.760,916.254,824.135,853.745,861.970,0.000,0.000,0
1507100309.760,810.975,815.910,838.940,815.910,0.000,0.000,0
1507100309.760,810.975,807.685,840.585,822.490,0.000,0.000,0
1507100309.760,863.615,810.975,850.455,840.585,0.000,0.000,0
1507100309.760,863.615,815.910,853.745,858.680,0.000,0.000,0
1507100309.760,758.336,812.620,842.230,845.520,0.000,0.000,0
1507100309.760,758.336,807.685,834.005,814.265,0.000,0.000,0
1507100309.840,863.615,815.910,843.875,847.165,0.000,0.000,0
1507100309.840,968.893,820.845,848.810,860.325,0.000,0.000,0
1507100309.840,916.254,825.780,843.875,852.100,0.000,0.000,0
1507100309.840,863.615,812.620,835.650,830.715,0.000,0.000,0
1507100309.840,863.615,809.330,840.585,834.005,0.000,0.000,0
1507100309.840,916.254,819.200,847.165,861.970,0.000,0.000,0
1507100309.840,916.254,820.845,845.520,863.615,0.000,0.000,0
1507100309.840,810.975,817.555,835.650,819.200,0.000,0.000,0
1507100309.840,810.975,809.330,830.715,815.910,0.000,0.000,0
1507100309.840,863.615,817.555,843.875,832.360,0.000,0.000,0
1507100309.840,916.254,825.780,848.810,855.390,0.000,0.000,0
1507100309.840,810.975,822.490,840.585,837.295,0.000,0.000,0
1507100309.840,758.336,814.265,835.650,809.330,0.000,0.000,0
1507100309.840,810.975,810.975,842.230,830.715,0.000,0.000,0
1507100309.840,863.615,817.555,845.520,868.550,0.000,0.000,0
1507100309.840,863.615,825.780,845.520,865.260,0.000,0.000,0
1507100309.907,810.975,817.555,835.650,820.845,0.000,0.000,0
1507100309.907,863.615,812.620,838.940,819.200,0.000,0.000,0
1507100309.907,968.893,812.620,848.810,842.230,0.000,0.000,0
1507100309.907,1021.533,817.555,850.455,860.325,0.000,0.000,0
1507100309.907,916.254,814.265,843.875,848.810,0.000,0.000,0
1507100309.907,863.615,807.685,835.650,804.395,0.000,0.000,0
1507100309.907,916.254,812.620,843.875,842.230,0.000,0.000,0
1507100309.907,968.893,819.200,847.165,870.195,0.000,0.000,0
1507100309.907,916.254,820.845,842.230,847.165,0.000,0.000,0
1507100309.907,863.615,817.555,832.360,796.170,0.000,0.000,0
1507100309.907,863.615,809.330,838.940,815.910,0.000,0.000,0
1507100309.907,916.254,810.975,845.520,832.360,0.000,0.000,0
1507100309.907,916.254,819.200,847.165,863.615,0.000,0.000,0
1507100309.907,810.975,812.620,835.650,838.940,0.000,0.000,0
1507100309.907,810.975,809.330,830.715,815.910,0.000,0.000,0
1507100309.907,863.615,815.910,842.230,843.875,0.000,0.000,0
1507100309.974,863.615,819.200,848.810,875.130,0.000,0.000,0
1507100309.974,810.975,815.910,843.875,852.100,0.000,0.000,0
1507100309.974,758.336,810.975,838.940,822.490,0.000,0.000,0
1507100309.974,810.975,809.330,845.520,837.295,0.000,0.000,0
1507100309.974,863.615,809.330,848.810,871.840,0.000,0.000,0
1507100309.974,863.615,815.910,848.810,866.905,0.000,0.000,0
1507100309.974,810.975,815.910,835.650,852.100,0.000,0.000,0
1507100309.974,810.975,807.685,834.005,827.425,0.000,0.000,0
1507100309.974,863.615,815.910,847.165,840.585,0.000,0.000,0
1507100309.974,863.615,819.200,852.100,868.550,0.000,0.000,0
1507100309.974,758.336,810.975,843.875,852.100,0.000,0.000,0
1507100309.974,758.336,806.040,837.295,837.295,0.000,0.000,0
1507100309.974,810.975,804.395,838.940,837.295,0.000,0.000,0
1507100309.974,863.615,807.685,843.875,861.970,0.000,0.000,0
1507100309.974,810.975,815.910,840.585,858.680,0.000,0.000,0
1507100309.974,758.336,807.685,835.650,837.295,0.000,0.000,0
1507100310.065,810.975,806.040,837.295,837.295,0.000,0.000,0
1507100310.065,863.615,812.620,847.165,848.810,0.000,0.000,0
1507100310.065,863.615,817.555,845.520,855.390,0.000,0.000,0
1507100310.065,758.336,812.620,834.005,824.135,0.000,0.000,0
1507100310.065,758.336,809.330,834.005,829.070,0.000,0.000,0
1507100310.065,810.975,806.040,843.875,860.325,0.000,0.000,0
1507100310.065,863.615,810.975,852.100,866.905,0.000,0.000,0
1507100310.065,810.975,815.910,847.165,850.455,0.000,0.000,0
1507100310.065,758.336,802.750,842.230,807.685,0.000,0.000,0
1507100310.065,810.975,809.330,845.520,819.200,0.000,0.000,0
1507100310.065,916.254,814.265,853.745,871.840,0.000,0.000,0
1507100310.065,916.254,817.555,850.455,868.550,0.000,0.000,0
1507100310.065,810.975,814.265,838.940,829.070,0.000,0.000,0
1507100310.065,810.975,807.685,840.585,822.490,0.000,0.000,0
1507100310.065,863.615,810.975,848.810,835.650,0.000,0.000,0
1507100310.065,916.254,819.200,858.680,868.550,0.000,0.000,0
1507100310.123,863.615,815.910,847.165,843.875,0.000,0.000,0
1507100310.123,810.975,810.975,835.650,814.265,0.000,0.000,0
1507100310.123,863.615,812.620,847.165,848.810,0.000,0.000,0
1507100310.123,916.254,814.265,855.390,865.260,0.000,0.000,0
1507100310.123,916.254,820.845,852.100,858.680,0.000,0.000,0
1507100310.123,863.615,812.620,840.585,817.555,0.000,0.000,0
1507100310.123,863.615,807.685,838.940,809.330,0.000,0.000,0
1507100310.123,916.254,814.265,848.810,865.260,0.000,0.000,0
1507100310.123,916.254,815.910,848.810,873.485,0.000,0.000,0
1507100310.123,810.975,812.620,837.295,835.650,0.000,0.000,0
1507100310.123,810.975,810.975,835.650,829.070,0.000,0.000,0
1507100310.123,863.615,809.330,843.875,834.005,0.000,0.000,0
1507100310.123,916.254,817.555,848.810,868.550,0.000,0.000,0
1507100310.123,863.615,819.200,843.875,861.970,0.000,0.000,0
1507100310.123,810.975,812.620,832.360,827.425,0.000,0.000,0
1507100310.123,810.975,809.330,838.940,842.230,0.000,0.000,0
1507100310.188,916.254,809.330,848.810,868.550,0.000,0.000,0
1507100310.188,916.254,819.200,848.810,853.745,0.000,0.000,0
1507100310.188,810.975,814.265,837.295,822.490,0.000,0.000,0
1507100310.188,810.975,804.395,834.005,817.555,0.000,0.000,0
1507100310.188,863.615,810.975,842.230,852.100,0.000,0.000,0
1507100310.188,916.254,812.620,843.875,870.195,0.000,0.000,0
1507100310.188,863.615,817.555,842.230,847.165,0.000,0.000,0
1507100310.188,810.975,810.975,835.650,802.750,0.000,0.000,0
1507100310.188,863.615,812.620,840.585,817.555,0.000,0.000,0
1507100310.188,916.254,817.555,850.455,853.745,0.000,0.000,0
1507100310.188,916.254,822.490,845.520,857.035,0.000,0.000,0
1507100310.188,810.975,817.555,835.650,835.650,0.000,0.000,0
1507100310.188,810.975,807.685,835.650,827.425,0.000,0.000,0
1507100310.188,863.615,815.910,845.520,843.875,0.000,0.000,0
1507100310.188,863.615,817.555,848.810,868.550,0.000,0.000,0
1507100310.188,810.975,815.910,842.230,835.650,0.000,0.000,0
1507100310.273,863.615,807.685,834.005,812.620,0.000,0.000,0
1507100310.273,916.254,807.685,840.585,827.425,0.000,0.000,0
1507100310.273,968.893,810.975,845.520,866.905,0.000,0.000,0
1507100310.273,916.254,814.265,843.875,863.615,0.000,0.000,0
1507100310.273,863.615,810.975,832.360,840.585,0.000,0.000,0
1507100310.273,863.615,802.750,834.005,829.070,0.000,0.000,0
1507100310.273,916.254,812.620,845.520,850.455,0.000,0.000,0
1507100310.273,916.254,819.200,842.230,857.035,0.000,0.000,0
1507100310.273,810.975,815.910,837.295,827.425,0.000,0.000,0
1507100310.273,810.975,810.975,832.360,810.975,0.000,0.000,0
1507100310.273,863.615,812.620,842.230,837.295,0.000,0.000,0
1507100310.273,916.254,815.910,850.455,863.615,0.000,0.000,0
1507100310.273,863.615,817.555,842.230,842.230,0.000,0.000,0
1507100310.273,810.975,812.620,837.295,814.265,0.000,0.000,0
1507100310.273,810.975,809.330,840.585,812.620,0.000,0.000,0
1507100310.273,916.254,822.490,848.810,857.035,0.000,0.000,0
1507100310.273,911.319,827.425,848.810,871.840,0.000,0.000,0
1507100310.368,806.040,819.200,835.650,834.005,0.000,0.000,0
1507100310.368,806.040,810.975,837.295,840.585,0.000,0.000,0
1507100310.368,858.680,807.685,850.455,866.905,0.000,0.000,0
1507100310.368,858.680,814.265,853.745,858.680,0.000,0.000,0
1507100310.368,806.040,817.555,848.810,834.005,0.000,0.000,0
1507100310.368,806.040,810.975,838.940,815.910,0.000,0.000,0
1507100310.368,858.680,814.265,843.875,830.715,0.000,0.000,0
1507100310.368,911.319,820.845,852.100,853.745,0.000,0.000,0
1507100310.368,911.319,825.780,848.810,858.680,0.000,0.000,0
1507100310.368,806.040,814.265,837.295,810.975,0.000,0.000,0
1507100310.368,806.040,810.975,838.940,814.265,0.000,0.000,0
1507100310.368,911.319,812.620,848.810,865.260,0.000,0.000,0
1507100310.368,911.319,815.910,847.165,855.390,0.000,0.000,0
1507100310.368,806.040,815.910,838.940,822.490,0.000,0.000,0
1507100310.368,806.040,810.975,837.295,819.200,0.000,0.000,0
1507100310.368,858.680,809.330,843.875,829.070,0.000,0.000,0
1507100310.425,911.319,820.845,850.455,857.035,0.000,0.000,0
1507100310.425,858.680,822.490,845.520,842.230,0.000,0.000,0
1507100310.425,806.040,815.910,834.005,817.555,0.000,0.000,0
1507100310.425,806.040,812.620,838.940,822.490,0.000,0.000,0
1507100310.425,858.680,815.910,850.455,863.615,0.000,0.000,0
1507100310.425,858.680,819.200,847.165,875.130,0.000,0.000,0
1507100310.425,753.401,814.265,835.650,819.200,0.000,0.000,0
1507100310.425,753.401,810.975,834.005,806.040,0.000,0.000,0
1507100310.425,806.040,812.620,843.875,832.360,0.000,0.000,0
1507100310.425,858.680,812.620,847.165,866.905,0.000,0.000,0
1507100310.425,806.040,817.555,837.295,842.230,0.000,0.000,0
1507100310.425,753.401,810.975,834.005,819.200,0.000,0.000,0
1507100310.425,806.040,810.975,838.940,825.780,0.000,0.000,0
1507100310.425,858.680,817.555,852.100,840.585,0.000,0.000,0
1507100310.425,858.680,817.555,852.100,873.485,0.000,0.000,0
1507100310.425,753.401,807.685,835.650,820.845,0.000,0.000,0
1507100310.488,806.040,807.685,834.005,806.040,0.000,0.000,0
1507100310.488,911.319,815.910,847.165,853.745,0.000,0.000,0
1507100310.488,911.319,817.555,847.165,860.325,0.000,0.000,0
1507100310.488,806.040,815.910,840.585,835.650,0.000,0.000,0
1507100310.488,806.040,807.685,835.650,820.845,0.000,0.000,0
1507100310.488,858.680,807.685,843.875,832.360,0.000,0.000,0
1507100310.488,911.319,815.910,852.100,861.970,0.000,0.000,0
1507100310.488,858.680,819.200,843.875,861.970,0.000,0.000,0
1507100310.488,806.040,814.265,832.360,822.490,0.000,0.000,0
1507100310.488,806.040,807.685,832.360,797.815,0.000,0.000,0
1507100310.488,911.319,817.555,847.165,847.165,0.000,0.000,0
1507100310.488,911.319,824.135,850.455,865.260,0.000,0.000,0
1507100310.488,806.040,815.910,835.650,832.360,0.000,0.000,0
1507100310.488,806.040,809.330,830.715,825.780,0.000,0.000,0
1507100310.488,858.680,807.685,838.940,830.715,0.000,0.000,0
1507100310.488,911.319,812.620,842.230,853.745,0.000,0.000,0
1507100310.557,806.040,820.845,838.940,847.165,0.000,0.000,0
1507100310.557,753.401,810.975,832.360,820.845,0.000,0.000,0
1507100310.557,806.040,809.330,840.585,827.425,0.000,0.000,0
1507100310.557,911.319,814.265,850.455,860.325,0.000,0.000,0
1507100310.557,911.319,815.910,845.520,863.615,0.000,0.000,0
1507100310.557,806.040,815.910,832.360,835.650,0.000,0.000,0
1507100310.557,806.040,810.975,829.070,827.425,0.000,0.000,0
1507100310.557,858.680,812.620,840.585,843.875,0.000,0.000,0
1507100310.557,911.319,817.555,848.810,876.775,0.000,0.000,0
1507100310.557,806.040,815.910,838.940,830.715,0.000,0.000,0
1507100310.557,806.040,810.975,832.360,817.555,0.000,0.000,0
1507100310.557,858.680,809.330,838.940,834.005,0.000,0.000,0
1507100310.557,911.319,814.265,843.875,855.390,0.000,0.000,0
1507100310.557,911.319,819.200,842.230,858.680,0.000,0.000,0
1507100310.557,806.040,810.975,827.425,835.650,0.000,0.000,0
1507100310.557,806.040,810.975,829.070,815.910,0.000,0.000,0
1507100310.638,911.319,815.910,842.230,838.940,0.000,0.000,0
1507100310.638,911.319,815.910,847.165,863.615,0.000,0.000,0
1507100310.638,806.040,807.685,835.650,806.040,0.000,0.000,0
1507100310.638,806.040,809.330,829.070,807.685,0.000,0.000,0
1507100310.638,858.680,807.685,837.295,838.940,0.000,0.000,0
1507100310.638,911.319,812.620,843.875,857.035,0.000,0.000,0
1507100310.638,858.680,815.910,842.230,845.520,0.000,0.000,0
1507100310.638,806.040,809.330,834.005,819.200,0.000,0.000,0
1507100310.638,806.040,810.975,835.650,814.265,0.000,0.000,0
1507100310.638,911.319,820.845,847.165,855.390,0.000,0.000,0
1507100310.638,911.319,817.555,847.165,866.905,0.000,0.000,0
1507100310.638,806.040,815.910,834.005,827.425,0.000,0.000,0
1507100310.638,806.040,810.975,830.715,815.910,0.000,0.000,0
1507100310.638,858.680,814.265,843.875,850.455,0.000,0.000,0
1507100310.638,911.319,817.555,852.100,868.550,0.000,0.000,0
1507100310.638,806.040,815.910,845.520,834.005,0.000,0.000,0
1507100310.704,806.040,812.620,837.295,809.330,0.000,0.000,0
1507100310.704,911.319,814.265,840.585,829.070,0.000,0.000,0
1507100310.704,963.958,817.555,845.520,858.680,0.000,0.000,0
1507100310.704,963.958,817.555,847.165,861.970,0.000,0.000,0
1507100310.704,858.680,814.265,837.295,832.360,0.000,0.000,0
1507100310.704,858.680,810.975,835.650,815.910,0.000,0.000,0
1507100310.704,963.958,815.910,848.810,853.745,0.000,0.000,0
1507100310.704,963.958,817.555,852.100,871.840,0.000,0.000,0
1507100310.704,858.680,817.555,840.585,834.005,0.000,0.000,0
1507100310.704,858.680,810.975,832.360,825.780,0.000,0.000,0
1507100310.704,911.319,809.330,842.230,830.715,0.000,0.000,0
1507100310.704,963.958,814.265,852.100,858.680,0.000,0.000,0
1507100310.704,911.319,819.200,845.520,861.970,0.000,0.000,0
1507100310.704,858.680,807.685,834.005,824.135,0.000,0.000,0
1507100310.704,858.680,809.330,837.295,819.200,0.000,0.000,0
1507100310.704,911.319,812.620,843.875,850.455,0.000,0.000,0
1507100310.770,858.680,817.555,848.810,857.035,0.000,0.000,0
1507100310.770,700.762,817.555,837.295,820.845,0.000,0.000,0
1507100310.770,700.762,812.620,834.005,801.105,0.000,0.000,0
1507100310.770,753.401,810.975,842.230,830.715,0.000,0.000,0
1507100310.770,806.040,820.845,850.455,857.035,0.000,0.000,0
1507100310.770,753.401,822.490,845.520,858.680,0.000,0.000,0
1507100310.770,700.762,810.975,835.650,815.910,0.000,0.000,0
1507100310.770,753.401,807.685,840.585,817.555,0.000,0.000,0
1507100310.770,806.040,812.620,850.455,857.035,0.000,0.000,0
1507100310.770,806.040,815.910,847.165,853.745,0.000,0.000,0
1507100310.770,753.401,817.555,837.295,832.360,0.000,0.000,0
1507100310.770,753.401,807.685,835.650,804.395,0.000,0.000,0
1507100310.770,806.040,809.330,845.520,843.875,0.000,0.000,0
1507100310.770,858.680,814.265,852.100,880.064,0.000,0.000,0
1507100310.770,753.401,812.620,843.875,837.295,0.000,0.000,0
1507100310.770,753.401,810.975,837.295,825.780,0.000,0.000,0
1507100310.854,806.040,807.685,837.295,815.910,0.000,0.000,0
1507100310.854,911.319,814.265,843.875,843.875,0.000,0.000,0
1507100310.854,963.958,819.200,842.230,852.100,0.000,0.000,0
1507100310.854,911.319,809.330,829.070,819.200,0.000,0.000,0
1507100310.854,911.319,802.750,832.360,835.650,0.000,0.000,0
1507100310.854,963.958,806.040,847.165,843.875,0.000,0.000,0
1507100310.854,963.958,812.620,847.165,863.615,0.000,0.000,0
1507100310.854,858.680,814.265,837.295,830.715,0.000,0.000,0
1507100310.854,858.680,810.975,830.715,806.040,0.000,0.000,0
1507100310.854,911.319,812.620,840.585,842.230,0.000,0.000,0
1507100310.854,963.958,812.620,850.455,860.325,0.000,0.000,0
1507100310.854,911.319,814.265,845.520,842.230,0.000,0.000,0
1507100310.854,858.680,810.975,837.295,812.620,0.000,0.000,0
1507100310.854,858.680,801.105,838.940,824.135,0.000,0.000,0
1507100310.854,911.319,814.265,848.810,850.455,0.000,0.000,0
1507100310.854,911.319,815.910,847.165,858.680,0.000,0.000,0
1507100310.854,791.236,812.620,837.295,827.425,0.000,0.000,0
1507100310.923,791.236,809.330,835.650,807.685,0.000,0.000,0
1507100310.923,843.875,810.975,845.520,838.940,0.000,0.000,0
1507100310.923,896.514,809.330,855.390,865.260,0.000,0.000,0
1507100310.923,843.875,807.685,845.520,852.100,0.000,0.000,0
1507100310.923,791.236,806.040,837.295,824.135,0.000,0.000,0
1507100310.923,843.875,804.395,840.585,848.810,0.000,0.000,0
1507100310.923,896.514,810.975,850.455,866.905,0.000,0.000,0
1507100310.923,896.514,817.555,850.455,853.745,0.000,0.000,0
1507100310.923,843.875,807.685,840.585,822.490,0.000,0.000,0
1507100310.923,843.875,804.395,842.230,801.105,0.000,0.000,0
1507100310.923,949.154,807.685,853.745,858.680,0.000,0.000,0
1507100310.923,949.154,806.040,855.390,865.260,0.000,0.000,0
1507100310.923,843.875,810.975,843.875,832.360,0.000,0.000,0
1507100310.923,843.875,806.040,834.005,810.975,0.000,0.000,0
1507100310.923,896.514,806.040,840.585,834.005,0.000,0.000,0
1507100310.923,949.154,809.330,853.745,868.550,0.000,0.000,0
1507100311.003,896.514,810.975,848.810,857.035,0.000,0.000,0
1507100311.003,843.875,809.330,837.295,829.070,0.000,0.000,0
1507100311.003,843.875,807.685,842.230,825.780,0.000,0.000,0
1507100311.003,896.514,810.975,850.455,858.680,0.000,0.000,0
1507100311.003,896.514,817.555,850.455,888.289,0.000,0.000,0
1507100311.003,791.236,810.975,842.230,848.810,0.000,0.000,0
1507100311.003,791.236,807.685,835.650,819.200,0.000,0.000,0
1507100311.003,843.875,810.975,845.520,838.940,0.000,0.000,0
1507100311.003,896.514,817.555,850.455,852.100,0.000,0.000,0
1507100311.003,843.875,820.845,842.230,848.810,0.000,0.000,0
1507100311.003,791.236,810.975,832.360,820.845,0.000,0.000,0
1507100311.003,843.875,810.975,837.295,843.875,0.000,0.000,0
1507100311.003,896.514,812.620,847.165,847.165,0.000,0.000,0
1507100311.003,896.514,820.845,845.520,858.680,0.000,0.000,0
1507100311.003,791.236,814.265,835.650,827.425,0.000,0.000,0
1507100311.003,791.236,809.330,835.650,825.780,0.000,0.000,0
1507100311.069,896.514,809.330,845.520,847.165,0.000,0.000,0
1507100311.069,949.154,812.620,847.165,860.325,0.000,0.000,0
1507100311.069,843.875,817.555,843.875,852.100,0.000,0.000,0
1507100311.069,791.236,809.330,837.295,810.975,0.000,0.000,0
1507100311.069,843.875,817.555,847.165,847.165,0.000,0.000,0
1507100311.069,896.514,819.200,855.390,858.680,0.000,0.000,0
1507100311.069,896.514,824.135,850.455,865.260,0.000,0.000,0
1507100311.069,791.236,810.975,837.295,827.425,0.000,0.000,0
1507100311.069,791.236,806.040,837.295,825.780,0.000,0.000,0
1507100311.069,843.875,809.330,847.165,850.455,0.000,0.000,0
1507100311.069,843.875,814.265,850.455,850.455,0.000,0.000,0
1507100311.069,791.236,820.845,842.230,845.520,0.000,0.000,0
1507100311.069,791.236,810.975,837.295,824.135,0.000,0.000,0
1507100311.069,843.875,814.265,845.520,847.165,0.000,0.000,0
1507100311.069,896.514,814.265,850.455,875.130,0.000,0.000,0
1507100311.069,843.875,812.620,840.585,848.810,0.000,0.000,0
1507100311.153,843.875,810.975,832.360,806.040,0.000,0.000,0
1507100311.153,949.154,807.685,842.230,830.715,0.000,0.000,0
1507100311.153,1001.793,815.910,852.100,857.035,0.000,0.000,0
1507100311.153,1001.793,824.135,852.100,861.970,0.000,0.000,0
1507100311.153,896.514,820.845,837.295,838.940,0.000,0.000,0
1507100311.153,896.514,812.620,832.360,825.780,0.000,0.000,0
1507100311.153,949.154,814.265,842.230,845.520,0.000,0.000,0
1507100311.153,1001.793,820.845,850.455,875.130,0.000,0.000,0
1507100311.153,896.514,819.200,843.875,852.100,0.000,0.000,0
1507100311.153,843.875,812.620,834.005,817.555,0.000,0.000,0
1507100311.153,896.514,812.620,843.875,842.230,0.000,0.000,0
1507100311.153,949.154,812.620,848.810,873.485,0.000,0.000,0
1507100311.153,949.154,820.845,845.520,870.195,0.000,0.000,0
1507100311.153,843.875,817.555,837.295,838.940,0.000,0.000,0
1507100311.153,843.875,806.040,835.650,825.780,0.000,0.000,0
1507100311.153,896.514,810.975,845.520,843.875,0.000,0.000,0
1507100311.219,896.514,812.620,850.455,860.325,0.000,0.000,0
1507100311.219,791.236,817.555,842.230,840.585,0.000,0.000,0
1507100311.219,791.236,812.620,835.650,822.490,0.000,0.000,0
1507100311.219,843.875,809.330,842.230,850.455,0.000,0.000,0
1507100311.219,896.514,815.910,850.455,886.644,0.000,0.000,0
1507100311.219,843.875,819.200,847.165,848.810,0.000,0.000,0
1507100311.219,791.236,809.330,834.005,819.200,0.000,0.000,0
1507100311.219,791.236,809.330,834.005,814.265,0.000,0.000,0
1507100311.219,843.875,815.910,843.875,848.810,0.000,0.000,0
1507100311.219,843.875,819.200,843.875,850.455,0.000,0.000,0
1507100311.219,738.596,817.555,838.940,835.650,0.000,0.000,0
1507100311.219,738.596,809.330,835.650,825.780,0.000,0.000,0
1507100311.219,791.236,810.975,845.520,861.970,0.000,0.000,0
1507100311.219,843.875,817.555,848.810,875.130,0.000,0.000,0
1507100311.219,791.236,820.845,842.230,852.100,0.000,0.000,0
1507100311.219,738.596,807.685,830.715,809.330,0.000,0.000,0
1507100311.288,843.875,809.330,837.295,835.650,0.000,0.000,0
1507100311.288,896.514,812.620,847.165,866.905,0.000,0.000,0
1507100311.288,896.514,817.555,842.230,853.745,0.000,0.000,0
1507100311.288,791.236,815.910,832.360,822.490,0.000,0.000,0
1507100311.288,791.236,810.975,830.715,817.555,0.000,0.000,0
1507100311.288,843.875,814.265,843.875,847.165,0.000,0.000,0
1507100311.288,896.514,819.200,850.455,878.419,0.000,0.000,0
1507100311.288,791.236,814.265,840.585,840.585,0.000,0.000,0
1507100311.288,791.236,807.685,832.360,820.845,0.000,0.000,0
1507100311.288,843.875,807.685,835.650,830.715,0.000,0.000,0
1507100311.288,896.514,817.555,843.875,847.165,0.000,0.000,0
1507100311.288,896.514,819.200,842.230,853.745,0.000,0.000,0
1507100311.288,791.236,814.265,827.425,807.685,0.000,0.000,0
1507100311.288,843.875,810.975,835.650,829.070,0.000,0.000,0
1507100311.288,896.514,810.975,845.520,852.100,0.000,0.000,0
1507100311.288,896.514,814.265,847.165,865.260,0.000,0.000,0
1507100311.369,843.875,807.685,840.585,842.230,0.000,0.000,0
1507100311.369,843.875,802.750,829.070,792.881,0.000,0.000,0
1507100311.369,896.514,809.330,838.940,842.230,0.000,0.000,0
1507100311.369,949.154,812.620,843.875,858.680,0.000,0.000,0
1507100311.369,896.514,819.200,840.585,860.325,0.000,0.000,0
1507100311.369,843.875,809.330,832.360,837.295,0.000,0.000,0
1507100311.369,843.875,801.105,834.005,817.555,0.000,0.000,0
1507100311.369,949.154,810.975,845.520,857.035,0.000,0.000,0
1507100311.369,949.154,809.330,843.875,861.970,0.000,0.000,0
1507100311.369,843.875,810.975,832.360,806.040,0.000,0.000,0
1507100311.369,843.875,807.685,832.360,789.591,0.000,0.000,0
1507100311.369,896.514,809.330,840.585,825.780,0.000,0.000,0
1507100311.369,896.514,817.555,845.520,847.165,0.000,0.000,0
1507100311.369,843.875,822.490,842.230,860.325,0.000,0.000,0
1507100311.369,791.236,810.975,835.650,819.200,0.000,0.000,0
1507100311.369,843.875,810.975,842.230,822.490,0.000,0.000,0
1507100311.435,949.154,814.265,850.455,847.165,0.000,0.000,0
1507100311.435,1001.793,822.490,850.455,858.680,0.000,0.000,0
1507100311.435,896.514,817.555,840.585,822.490,0.000,0.000,0
1507100311.435,896.514,810.975,842.230,837.295,0.000,0.000,0
1507100311.435,949.154,807.685,848.810,858.680,0.000,0.000,0
1507100311.435,949.154,815.910,850.455,871.840,0.000,0.000,0
1507100311.435,843.875,817.555,842.230,850.455,0.000,0.000,0
1507100311.435,843.875,810.975,837.295,825.780,0.000,0.000,0
1507100311.435,896.514,810.975,843.875,835.650,0.000,0.000,0
1507100311.435,949.154,817.555,852.100,847.165,0.000,0.000,0
1507100311.435,896.514,822.490,845.520,852.100,0.000,0.000,0
1507100311.435,843.875,810.975,838.940,822.490,0.000,0.000,0
1507100311.435,843.875,807.685,837.295,835.650,0.000,0.000,0
1507100311.435,896.514,809.330,843.875,865.260,0.000,0.000,0
1507100311.435,896.514,815.910,847.165,850.455,0.000,0.000,0
1507100311.435,791.236,817.555,835.650,820.845,0.000,0.000,0
1507100311.435,774.786,807.685,835.650,812.620,0.000,0.000,0
1507100311.519,880.064,809.330,845.520,837.295,0.000,0.000,0
1507100311.519,932.704,817.555,850.455,857.035,0.000,0.000,0
1507100311.519,880.064,819.200,847.165,853.745,0.000,0.000,0
1507100311.519,827.425,809.330,837.295,824.135,0.000,0.000,0
1507100311.519,880.064,809.330,845.520,840.585,0.000,0.000,0
1507100311.519,932.704,812.620,852.100,881.709,0.000,0.000,0
1507100311.519,932.704,817.555,848.810,853.745,0.000,0.000,0
1507100311.519,880.064,815.910,842.230,827.425,0.000,0.000,0
1507100311.519,880.064,809.330,837.295,802.750,0.000,0.000,0
1507100311.519,932.704,814.265,847.165,832.360,0.000,0.000,0
1507100311.519,932.704,817.555,850.455,865.260,0.000,0.000,0
1507100311.519,827.425,814.265,842.230,835.650,0.000,0.000,0
1507100311.519,827.425,807.685,832.360,822.490,0.000,0.000,0
1507100311.519,880.064,807.685,842.230,830.715,0.000,0.000,0
1507100311.519,932.704,814.265,853.745,883.354,0.000,0.000,0
1507100311.519,880.064,812.620,848.810,873.485,0.000,0.000,0
1507100311.584,880.064,806.040,838.940,837.295,0.000,0.000,0
1507100311.584,932.704,806.040,842.230,832.360,0.000,0.000,0
1507100311.584,985.343,809.330,852.100,852.100,0.000,0.000,0
1507100311.584,985.343,814.265,852.100,863.615,0.000,0.000,0
1507100311.584,880.064,815.910,843.875,827.425,0.000,0.000,0
1507100311.584,880.064,809.330,840.585,820.845,0.000,0.000,0
1507100311.584,932.704,812.620,848.810,837.295,0.000,0.000,0
1507100311.584,985.343,820.845,857.035,884.999,0.000,0.000,0
1507100311.584,932.704,817.555,845.520,861.970,0.000,0.000,0
1507100311.584,880.064,812.620,834.005,820.845,0.000,0.000,0
1507100311.584,880.064,814.265,838.940,820.845,0.000,0.000,0
1507100311.584,932.704,815.910,848.810,848.810,0.000,0.000,0
1507100311.584,932.704,822.490,852.100,880.064,0.000,0.000,0
1507100311.584,827.425,819.200,840.585,838.940,0.000,0.000,0
1507100311.584,827.425,810.975,837.295,817.555,0.000,0.000,0
1507100311.584,880.064,812.620,845.520,835.650,0.000,0.000,0
1507100311.650,932.704,817.555,852.100,865.260,0.000,0.000,0
1507100311.650,880.064,819.200,847.165,840.585,0.000,0.000,0
1507100311.650,827.425,809.330,842.230,840.585,0.000,0.000,0
1507100311.650,827.425,806.040,843.875,834.005,0.000,0.000,0
1507100311.650,880.064,814.265,852.100,863.615,0.000,0.000,0
1507100311.650,880.064,820.845,850.455,860.325,0.000,0.000,0
1507100311.650,827.425,819.200,840.585,832.360,0.000,0.000,0
1507100311.650,827.425,815.910,838.940,822.490,0.000,0.000,0
1507100311.650,880.064,819.200,847.165,861.970,0.000,0.000,0
1507100311.650,880.064,819.200,848.810,855.390,0.000,0.000,0
1507100311.650,774.786,820.845,842.230,837.295,0.000,0.000,0
1507100311.650,774.786,809.330,837.295,829.070,0.000,0.000,0
1507100311.650,827.425,810.975,847.165,848.810,0.000,0.000,0
1507100311.650,880.064,822.490,855.390,870.195,0.000,0.000,0
1507100311.650,827.425,822.490,847.165,843.875,0.000,0.000,0
1507100311.650,774.786,817.555,835.650,812.620,0.000,0.000,0
1507100311.735,827.425,812.620,837.295,825.780,0.000,0.000,0
1507100311.735,932.704,810.975,847.165,847.165,0.000,0.000,0
1507100311.735,932.704,819.200,850.455,858.680,0.000,0.000,0
1507100311.735,827.425,815.910,838.940,809.330,0.000,0.000,0
1507100311.735,827.425,807.685,834.005,810.975,0.000,0.000,0
1507100311.735,880.064,810.975,842.230,830.715,0.000,0.000,0
1507100311.735,932.704,815.910,848.810,863.615,0.000,0.000,0
1507100311.735,880.064,815.910,842.230,847.165,0.000,0.000,0
1507100311.735,827.425,810.975,832.360,809.330,0.000,0.000,0
1507100311.735,880.064,807.685,835.650,832.360,0.000,0.000,0
1507100311.735,932.704,810.975,845.520,853.745,0.000,0.000,0
1507100311.735,932.704,814.265,843.875,861.970,0.000,0.000,0
1507100311.735,827.425,810.975,837.295,827.425,0.000,0.000,0
1507100311.735,827.425,809.330,838.940,832.360,0.000,0.000,0
1507100311.735,880.064,812.620,845.520,850.455,0.000,0.000,0
1507100311.735,932.704,819.200,847.165,870.195,0.000,0.000,0
1507100311.800,880.064,820.845,840.585,847.165,0.000,0.000,0
1507100311.800,827.425,809.330,832.360,810.975,0.000,0.000,0
1507100311.800,880.064,809.330,837.295,845.520,0.000,0.000,0
1507100311.800,932.704,809.330,845.520,858.680,0.000,0.000,0
1507100311.800,932.704,819.200,843.875,845.520,0.000,0.000,0
1507100311.800,827.425,815.910,832.360,806.040,0.000,0.000,0
1507100311.800,827.425,814.265,835.650,810.975,0.000,0.000,0
1507100311.800,932.704,817.555,842.230,857.035,0.000,0.000,0
1507100311.800,932.704,814.265,842.230,852.100,0.000,0.000,0
1507100311.800,827.425,817.555,834.005,815.910,0.000,0.000,0
1507100311.800,827.425,807.685,830.715,796.170,0.000,0.000,0
1507100311.800,880.064,812.620,845.520,827.425,0.000,0.000,0
1507100311.800,932.704,815.910,852.100,866.905,0.000,0.000,0
1507100311.800,880.064,822.490,848.810,845.520,0.000,0.000,0
1507100311.800,827.425,819.200,835.650,822.490,0.000,0.000,0
1507100311.800,827.425,814.265,834.005,815.910,0.000,0.000,0
1507100311.866,932.704,820.845,843.875,847.165,0.000,0.000,0
1507100311.866,985.343,819.200,845.520,858.680,0.000,0.000,0
1507100311.866,880.064,812.620,835.650,817.555,0.000,0.000,0
1507100311.866,880.064,807.685,835.650,827.425,0.000,0.000,0
1507100311.866,932.704,809.330,842.230,830.715,0.000,0.000,0
1507100311.866,985.343,814.265,850.455,876.775,0.000,0.000,0
1507100311.866,880.064,814.265,840.585,842.230,0.000,0.000,0
1507100311.866,827.425,810.975,832.360,812.620,0.000,0.000,0
1507100311.866,880.064,810.975,842.230,845.520,0.000,0.000,0
1507100311.866,932.704,822.490,850.455,857.035,0.000,0.000,0
1507100311.866,932.704,822.490,850.455,871.840,0.000,0.000,0
1507100311.866,827.425,806.040,842.230,829.070,0.000,0.000,0
1507100311.866,827.425,804.395,838.940,819.200,0.000,0.000,0
1507100311.866,880.064,809.330,843.875,835.650,0.000,0.000,0
1507100311.866,880.064,820.845,847.165,875.130,0.000,0.000,0
1507100311.866,774.786,822.490,838.940,835.650,0.000,0.000,0
1507100311.950,827.425,812.620,832.360,807.685,0.000,0.000,0
1507100311.950,932.704,812.620,840.585,829.070,0.000,0.000,0
1507100311.950,985.343,820.845,852.100,857.035,0.000,0.000,0
1507100311.950,932.704,820.845,847.165,858.680,0.000,0.000,0
1507100311.950,880.064,810.975,837.295,843.875,0.000,0.000,0
1507100311.950,880.064,804.395,837.295,817.555,0.000,0.000,0
1507100311.950,932.704,814.265,847.165,843.875,0.000,0.000,0
1507100311.950,932.704,817.555,850.455,852.100,0.000,0.000,0
1507100311.950,827.425,814.265,840.585,807.685,0.000,0.000,0
1507100311.950,827.425,809.330,840.585,820.845,0.000,0.000,0
1507100311.950,880.064,809.330,838.940,835.650,0.000,0.000,0
1507100311.950,932.704,817.555,848.810,857.035,0.000,0.000,0
1507100311.950,880.064,819.200,842.230,842.230,0.000,0.000,0
1507100311.950,827.425,812.620,835.650,820.845,0.000,0.000,0
1507100311.950,880.064,809.330,842.230,835.650,0.000,0.000,0
1507100311.950,932.704,812.620,848.810,863.615,0.000,0.000,0
1507100312.018,906.384,824.135,850.455,871.840,0.000,0.000,0
1507100312.018,801.105,817.555,838.940,827.425,0.000,0.000,0
1507100312.018,801.105,814.265,834.005,806.040,0.000,0.000,0
1507100312.018,880.064,817.555,847.165,842.230,0.000,0.000,0
1507100312.018,906.384,815.910,852.100,868.550,0.000,0.000,0
1507100312.018,801.105,817.555,842.230,837.295,0.000,0.000,0
1507100312.018,774.786,815.910,838.940,832.360,0.000,0.000,0
1507100312.018,827.425,812.620,843.875,832.360,0.000,0.000,0
1507100312.018,906.384,815.910,850.455,850.455,0.000,0.000,0
1507100312.018,880.064,820.845,848.810,861.970,0.000,0.000,0
1507100312.018,774.786,809.330,832.360,814.265,0.000,0.000,0
1507100312.018,801.105,810.975,837.295,825.780,0.000,0.000,0
1507100312.018,880.064,807.685,848.810,840.585,0.000,0.000,0
1507100312.018,906.384,810.975,852.100,863.615,0.000,0.000,0
1507100312.018,801.105,814.265,847.165,843.875,0.000,0.000,0
1507100312.018,774.786,809.330,840.585,812.620,0.000,0.000,0
1507100312.018,857.035,815.910,847.165,848.810,0.000,0.000,0
1507100312.103,857.035,812.620,852.100,861.970,0.000,0.000,0
1507100312.103,804.395,817.555,843.875,857.035,0.000,0.000,0
1507100312.103,751.756,810.975,834.005,825.780,0.000,0.000,0
1507100312.103,751.756,809.330,843.875,827.425,0.000,0.000,0
1507100312.103,857.035,815.910,855.390,866.905,0.000,0.000,0
1507100312.103,857.035,814.265,850.455,858.680,0.000,0.000,0
1507100312.103,751.756,819.200,837.295,832.360,0.000,0.000,0
1507100312.103,751.756,815.910,832.360,820.845,0.000,0.000,0
1507100312.103,804.395,822.490,842.230,830.715,0.000,0.000,0
1507100312.103,857.035,824.135,852.100,873.485,0.000,0.000,0
1507100312.103,804.395,820.845,848.810,845.520,0.000,0.000,0
1507100312.103,751.756,812.620,837.295,822.490,0.000,0.000,0
1507100312.103,804.395,809.330,842.230,827.425,0.000,0.000,0
1507100312.103,857.035,815.910,852.100,865.260,0.000,0.000,0
1507100312.103,857.035,819.200,848.810,868.550,0.000,0.000,0
1507100312.103,751.756,817.555,838.940,832.360,0.000,0.000,0
1507100312.166,804.395,814.265,838.940,830.715,0.000,0.000,0
1507100312.166,909.674,817.555,847.165,852.100,0.000,0.000,0
1507100312.166,962.313,824.135,852.100,865.260,0.000,0.000,0
1507100312.166,857.035,819.200,840.585,830.715,0.000,0.000,0
1507100312.166,857.035,809.330,834.005,810.975,0.000,0.000,0
1507100312.166,909.674,807.685,840.585,825.780,0.000,0.000,0
1507100312.166,962.313,815.910,850.455,873.485,0.000,0.000,0
1507100312.166,909.674,819.200,843.875,875.130,0.000,0.000,0
1507100312.166,804.395,815.910,834.005,812.620,0.000,0.000,0
1507100312.166,857.035,815.910,840.585,835.650,0.000,0.000,0
1507100312.166,909.674,812.620,848.810,852.100,0.000,0.000,0
1507100312.166,909.674,822.490,852.100,873.485,0.000,0.000,0
1507100312.166,804.395,817.555,837.295,838.940,0.000,0.000,0
1507100312.166,804.395,807.685,834.005,814.265,0.000,0.000,0
1507100312.166,857.035,810.975,843.875,850.455,0.000,0.000,0
1507100312.166,909.674,819.200,850.455,865.260,0.000,0.000,0
1507100312.233,804.395,819.200,840.585,840.585,0.000,0.000,0
1507100312.233,751.756,810.975,832.360,807.685,0.000,0.000,0
1507100312.233,804.395,810.975,840.585,814.265,0.000,0.000,0
1507100312.233,857.035,812.620,847.165,858.680,0.000,0.000,0
1507100312.233,857.035,819.200,845.520,855.390,0.000,0.000,0
1507100312.233,804.395,815.910,837.295,840.585,0.000,0.000,0
1507100312.233,804.395,809.330,834.005,817.555,0.000,0.000,0
1507100312.233,857.035,815.910,847.165,850.455,0.000,0.000,0
1507100312.233,857.035,817.555,850.455,873.485,0.000,0.000,0
1507100312.233,751.756,822.490,842.230,824.135,0.000,0.000,0
1507100312.233,751.756,812.620,835.650,817.555,0.000,0.000,0
1507100312.233,804.395,807.685,840.585,832.360,0.000,0.000,0
1507100312.233,857.035,815.910,848.810,868.550,0.000,0.000,0
1507100312.233,857.035,817.555,847.165,871.840,0.000,0.000,0
1507100312.233,804.395,817.555,837.295,845.520,0.000,0.000,0
1507100312.233,804.395,810.975,838.940,830.715,0.000,0.000,0
1507100312.316,909.674,814.265,845.520,843.875,0.000,0.000,0
1507100312.316,909.674,819.200,848.810,861.970,0.000,0.000,0
1507100312.316,804.395,817.555,840.585,825.780,0.000,0.000,0
1507100312.316,804.395,810.975,837.295,810.975,0.000,0.000,0
1507100312.316,857.035,807.685,842.230,845.520,0.000,0.000,0
1507100312.316,909.674,807.685,847.165,860.325,0.000,0.000,0
1507100312.316,857.035,810.975,843.875,832.360,0.000,0.000,0
1507100312.316,804.395,809.330,837.295,812.620,0.000,0.000,0
1507100312.316,804.395,812.620,843.875,814.265,0.000,0.000,0
1507100312.316,857.035,817.555,852.100,857.035,0.000,0.000,0
1507100312.316,857.035,817.555,850.455,858.680,0.000,0.000,0
1507100312.316,751.756,815.910,838.940,814.265,0.000,0.000,0
1507100312.316,751.756,814.265,838.940,815.910,0.000,0.000,0
1507100312.316,804.395,814.265,845.520,834.005,0.000,0.000,0
1507100312.316,857.035,819.200,853.745,875.130,0.000,0.000,0
1507100312.316,804.395,815.910,847.165,858.680,0.000,0.000,0
1507100312.381,804.395,812.620,835.650,812.620,0.000,0.000,0
1507100312.381,857.035,815.910,842.230,842.230,0.000,0.000,0
1507100312.381,909.674,814.265,850.455,858.680,0.000,0.000,0
1507100312.381,909.674,819.200,845.520,852.100,0.000,0.000,0
1507100312.381,857.035,817.555,832.360,824.135,0.000,0.000,0
1507100312.381,857.035,814.265,835.650,820.845,0.000,0.000,0
1507100312.381,962.313,817.555,847.165,858.680,0.000,0.000,0
1507100312.381,962.313,810.975,850.455,865.260,0.000,0.000,0
1507100312.381,857.035,814.265,845.520,835.650,0.000,0.000,0
1507100312.381,857.035,809.330,837.295,822.490,0.000,0.000,0
1507100312.381,909.674,812.620,840.585,827.425,0.000,0.000,0
1507100312.381,962.313,825.780,847.165,873.485,0.000,0.000,0
1507100312.381,909.674,820.845,840.585,855.390,0.000,0.000,0
1507100312.381,857.035,814.265,834.005,822.490,0.000,0.000,0
1507100312.381,857.035,806.040,840.585,827.425,0.000,0.000,0
1507100312.381,909.674,809.330,848.810,861.970,0.000,0.000,0
1507100312.465,909.674,815.910,845.520,871.840,0.000,0.000,0
1507100312.465,804.395,817.555,835.650,825.780,0.000,0.000,0
1507100312.465,804.395,809.330,832.360,825.780,0.000,0.000,0
1507100312.465,857.035,817.555,842.230,843.875,0.000,0.000,0
1507100312.465,909.674,822.490,850.455,868.550,0.000,0.000,0
1507100312.465,857.035,822.490,842.230,860.325,0.000,0.000,0
1507100312.465,804.395,812.620,837.295,810.975,0.000,0.000,0
1507100312.465,857.035,807.685,842.230,840.585,0.000,0.000,0
1507100312.465,909.674,815.910,847.165,855.390,0.000,0.000,0
1507100312.465,909.674,825.780,847.165,873.485,0.000,0.000,0
1507100312.465,804.395,819.200,837.295,832.360,0.000,0.000,0
1507100312.465,804.395,810.975,835.650,834.005,0.000,0.000,0
1507100312.465,857.035,810.975,842.230,853.745,0.000,0.000,0
1507100312.465,857.035,819.200,850.455,873.485,0.000,0.000,0
1507100312.465,751.756,815.910,845.520,858.680,0.000,0.000,0
1507100312.465,751.756,809.330,838.940,829.070,0.000,0.000,0
1507100312.532,857.035,814.265,845.520,842.230,0.000,0.000,0
1507100312.532,962.313,817.555,847.165,876.775,0.000,0.000,0
1507100312.532,909.674,822.490,843.875,858.680,0.000,0.000,0
1507100312.532,857.035,819.200,834.005,817.555,0.000,0.000,0
1507100312.532,857.035,814.265,837.295,822.490,0.000,0.000,0
1507100312.532,909.674,817.555,845.520,843.875,0.000,0.000,0
1507100312.532,909.674,820.845,847.165,866.905,0.000,0.000,0
1507100312.532,857.035,820.845,842.230,857.035,0.000,0.000,0
1507100312.532,857.035,814.265,835.650,819.200,0.000,0.000,0
1507100312.532,909.674,817.555,843.875,827.425,0.000,0.000,0
1507100312.532,962.313,820.845,852.100,863.615,0.000,0.000,0
1507100312.532,909.674,824.135,843.875,855.390,0.000,0.000,0
1507100312.532,857.035,815.910,835.650,827.425,0.000,0.000,0
1507100312.532,857.035,814.265,838.940,835.650,0.000,0.000,0
1507100312.532,909.674,814.265,847.165,863.615,0.000,0.000,0
1507100312.532,909.674,819.200,845.520,871.840,0.000,0.000,0
1507100312.601,857.035,817.555,835.650,840.585,0.000,0.000,0
1507100312.601,857.035,812.620,835.650,819.200,0.000,0.000,0
1507100312.601,909.674,815.910,843.875,829.070,0.000,0.000,0
1507100312.601,962.313,817.555,850.455,853.745,0.000,0.000,0
1507100312.601,909.674,817.555,845.520,842.230,0.000,0.000,0
1507100312.601,857.035,812.620,834.005,817.555,0.000,0.000,0
1507100312.601,909.674,812.620,842.230,842.230,0.000,0.000,0
1507100312.601,962.313,812.620,848.810,853.745,0.000,0.000,0
1507100312.601,962.313,824.135,843.875,863.615,0.000,0.000,0
1507100312.601,857.035,815.910,835.650,812.620,0.000,0.000,0
1507100312.601,857.035,815.910,835.650,815.910,0.000,0.000,0
1507100312.601,909.674,815.910,847.165,852.100,0.000,0.000,0
1507100312.601,909.674,815.910,852.100,875.130,0.000,0.000,0
1507100312.601,804.395,809.330,843.875,848.810,0.000,0.000,0
1507100312.601,804.395,806.040,837.295,819.200,0.000,0.000,0
1507100312.601,857.035,810.975,842.230,824.135,0.000,0.000,0
1507100312.601,929.414,815.910,850.455,853.745,0.000,0.000,0
1507100312.684,824.135,824.135,845.520,860.325,0.000,0.000,0
1507100312.684,771.496,812.620,835.650,806.040,0.000,0.000,0
1507100312.684,771.496,809.330,837.295,814.265,0.000,0.000,0
1507100312.684,824.135,810.975,848.810,845.520,0.000,0.000,0
1507100312.684,824.135,812.620,850.455,866.905,0.000,0.000,0
1507100312.684,718.856,809.330,838.940,825.780,0.000,0.000,0
1507100312.684,718.856,804.395,838.940,812.620,0.000,0.000,0
1507100312.684,771.496,806.040,847.165,835.650,0.000,0.000,0
1507100312.684,824.135,809.330,852.100,873.485,0.000,0.000,0
1507100312.684,771.496,814.265,845.520,860.325,0.000,0.000,0
1507100312.684,718.856,802.750,834.005,817.555,0.000,0.000,0
1507100312.684,771.496,806.040,837.295,812.620,0.000,0.000,0
1507100312.684,876.775,810.975,848.810,863.615,0.000,0.000,0
1507100312.684,876.775,812.620,850.455,861.970,0.000,0.000,0
1507100312.684,771.496,810.975,837.295,820.845,0.000,0.000,0
1507100312.684,771.496,807.685,840.585,827.425,0.000,0.000,0
1507100312.748,876.775,807.685,845.520,834.005,0.000,0.000,0
1507100312.748,929.414,812.620,848.810,873.485,0.000,0.000,0
1507100312.748,824.135,810.975,835.650,817.555,0.000,0.000,0
1507100312.748,824.135,804.395,830.715,806.040,0.000,0.000,0
1507100312.748,876.775,806.040,840.585,834.005,0.000,0.000,0
1507100312.748,929.414,814.265,852.100,865.260,0.000,0.000,0
1507100312.748,876.775,814.265,848.810,868.550,0.000,0.000,0
1507100312.748,771.496,807.685,835.650,817.555,0.000,0.000,0
1507100312.748,771.496,804.395,837.295,814.265,0.000,0.000,0
1507100312.748,824.135,810.975,847.165,860.325,0.000,0.000,0
1507100312.748,824.135,817.555,848.810,876.775,0.000,0.000,0
1507100312.748,771.496,812.620,840.585,838.940,0.000,0.000,0
1507100312.748,771.496,806.040,837.295,819.200,0.000,0.000,0
1507100312.748,824.135,807.685,845.520,825.780,0.000,0.000,0
1507100312.748,876.775,815.910,852.100,850.455,0.000,0.000,0
1507100312.748,824.135,819.200,843.875,840.585,0.000,0.000,0
1507100312.830,824.135,807.685,834.005,806.040,0.000,0.000,0
1507100312.830,824.135,807.685,838.940,812.620,0.000,0.000,0
1507100312.830,876.775,814.265,848.810,847.165,0.000,0.000,0
1507100312.830,876.775,817.555,848.810,858.680,0.000,0.000,0
1507100312.830,824.135,815.910,840.585,840.585,0.000,0.000,0
1507100312.830,824.135,801.105,837.295,825.780,0.000,0.000,0
1507100312.830,876.775,807.685,845.520,840.585,0.000,0.000,0
1507100312.830,929.414,817.555,850.455,875.130,0.000,0.000,0
1507100312.830,824.135,814.265,838.940,835.650,0.000,0.000,0
1507100312.830,824.135,809.330,835.650,822.490,0.000,0.000,0
1507100312.830,876.775,802.750,843.875,832.360,0.000,0.000,0
1507100312.830,929.414,810.975,852.100,855.390,0.000,0.000,0
1507100312.830,876.775,815.910,850.455,852.100,0.000,0.000,0
1507100312.830,824.135,812.620,838.940,829.070,0.000,0.000,0
1507100312.830,824.135,807.685,838.940,819.200,0.000,0.000,0
1507100312.830,876.775,814.265,847.165,845.520,0.000,0.000,0
1507100312.928,929.414,822.490,850.455,878.419,0.000,0.000,0
1507100312.928,876.775,820.845,840.585,832.360,0.000,0.000,0
1507100312.928,876.775,810.975,838.940,827.425,0.000,0.000,0
1507100312.928,929.414,809.330,848.810,835.650,0.000,0.000,0
1507100312.928,982.053,820.845,857.035,858.680,0.000,0.000,0
1507100312.928,929.414,824.135,850.455,853.745,0.000,0.000,0
1507100312.928,876.775,814.265,838.940,827.425,0.000,0.000,0
1507100312.928,876.775,810.975,840.585,845.520,0.000,0.000,0
1507100312.928,929.414,817.555,848.810,857.035,0.000,0.000,0
1507100312.928,929.414,825.780,850.455,876.775,0.000,0.000,0
1507100312.928,824.135,824.135,840.585,832.360,0.000,0.000,0
1507100312.928,824.135,810.975,840.585,817.555,0.000,0.000,0
1507100312.928,876.775,812.620,848.810,857.035,0.000,0.000,0
1507100312.928,876.775,819.200,850.455,866.905,0.000,0.000,0
1507100312.928,824.135,822.490,838.940,845.520,0.000,0.000,0
1507100312.928,771.496,812.620,834.005,829.070,0.000,0.000,0
1507100312.965,876.775,814.265,842.230,838.940,0.000,0.000,0
1507100312.965,982.053,822.490,848.810,870.195,0.000,0.000,0
1507100312.965,1034.693,824.135,848.810,866.905,0.000,0.000,0
1507100312.965,929.414,815.910,835.650,806.040,0.000,0.000,0
1507100312.965,929.414,810.975,835.650,822.490,0.000,0.000,0
1507100312.965,982.053,812.620,845.520,853.745,0.000,0.000,0
1507100312.965,982.053,822.490,848.810,880.064,0.000,0.000,0
1507100312.965,876.775,820.845,837.295,840.585,0.000,0.000,0
1507100312.965,876.775,809.330,832.360,810.975,0.000,0.000,0
1507100312.965,929.414,810.975,842.230,843.875,0.000,0.000,0
1507100312.965,982.053,814.265,847.165,876.775,0.000,0.000,0
1507100312.965,929.414,817.555,843.875,861.970,0.000,0.000,0
1507100312.965,876.775,810.975,834.005,820.845,0.000,0.000,0
1507100312.965,876.775,807.685,834.005,820.845,0.000,0.000,0
1507100312.965,929.414,810.975,843.875,845.520,0.000,0.000,0
1507100312.965,929.414,820.845,850.455,878.419,0.000,0.000,0
1507100313.046,824.135,812.620,838.940,835.650,0.000,0.000,0
1507100313.046,824.135,806.040,834.005,804.395,0.000,0.000,0
1507100313.046,903.094,809.330,843.875,837.295,0.000,0.000,0
1507100313.046,929.414,812.620,845.520,852.100,0.000,0.000,0
1507100313.046,850.455,817.555,842.230,853.745,0.000,0.000,0
1507100313.046,797.815,809.330,835.650,824.135,0.000,0.000,0
1507100313.046,824.135,809.330,838.940,819.200,0.000,0.000,0
1507100313.046,903.094,809.330,848.810,860.325,0.000,0.000,0
1507100313.046,876.775,817.555,845.520,847.165,0.000,0.000,0
1507100313.046,797.815,809.330,837.295,822.490,0.000,0.000,0
1507100313.046,797.815,799.460,832.360,799.460,0.000,0.000,0
1507100313.046,903.094,809.330,843.875,832.360,0.000,0.000,0
1507100313.046,929.414,814.265,850.455,863.615,0.000,0.000,0
1507100313.046,824.135,812.620,838.940,825.780,0.000,0.000,0
1507100313.046,797.815,807.685,832.360,824.135,0.000,0.000,0
1507100313.046,824.135,807.685,837.295,827.425,0.000,0.000,0
1507100313.114,929.414,807.685,845.520,852.100,0.000,0.000,0
1507100313.114,982.053,810.975,840.585,852.100,0.000,0.000,0
1507100313.114,876.775,804.395,830.715,810.975,0.000,0.000,0
1507100313.114,876.775,802.750,830.715,809.330,0.000,0.000,0
1507100313.114,929.414,812.620,842.230,852.100,0.000,0.000,0
1507100313.114,929.414,814.265,848.810,860.325,0.000,0.000,0
1507100313.114,824.135,814.265,840.585,830.715,0.000,0.000,0
1507100313.114,824.135,806.040,832.360,809.330,0.000,0.000,0
1507100313.114,876.775,809.330,840.585,825.780,0.000,0.000,0
1507100313.114,929.414,812.620,847.165,870.195,0.000,0.000,0
1507100313.114,876.775,807.685,838.940,845.520,0.000,0.000,0
1507100313.114,824.135,807.685,835.650,824.135,0.000,0.000,0
1507100313.114,824.135,804.395,838.940,830.715,0.000,0.000,0
1507100313.114,876.775,809.330,848.810,847.165,0.000,0.000,0
1507100313.114,876.775,815.910,847.165,848.810,0.000,0.000,0
1507100313.114,771.496,814.265,834.005,825.780,0.000,0.000,0
1507100313.180,824.135,809.330,834.005,812.620,0.000,0.000,0
1507100313.180,929.414,812.620,847.165,835.650,0.000,0.000,0
1507100313.180,929.414,817.555,855.390,866.905,0.000,0.000,0
1507100313.180,876.775,814.265,847.165,852.100,0.000,0.000,0
1507100313.180,824.135,802.750,834.005,809.330,0.000,0.000,0
1507100313.180,876.775,810.975,840.585,835.650,0.000,0.000,0
1507100313.180,929.414,812.620,850.455,853.745,0.000,0.000,0
1507100313.180,929.414,817.555,847.165,830.715,0.000,0.000,0
1507100313.180,876.775,819.200,840.585,814.265,0.000,0.000,0
1507100313.180,876.775,814.265,840.585,817.555,0.000,0.000,0
1507100313.180,929.414,812.620,848.810,857.035,0.000,0.000,0
1507100313.180,929.414,814.265,852.100,871.840,0.000,0.000,0
1507100313.180,824.135,812.620,840.585,832.360,0.000,0.000,0
1507100313.180,824.135,804.395,832.360,817.555,0.000,0.000,0
1507100313.180,876.775,806.040,838.940,824.135,0.000,0.000,0
