timestamps,TP9,FP1,FP2,TP10,n/a,n/a,Marker0
1512340287.296,919.544,801.105,838.940,919.544,0.000,0.000,0
1512340287.300,911.319,807.685,837.295,908.029,0.000,0.000,0
1512340287.305,909.674,825.780,834.005,899.804,0.000,0.000,0
1512340287.309,919.544,807.685,858.680,912.964,0.000,0.000,0
1512340287.314,919.544,822.490,843.875,908.029,0.000,0.000,0
1512340287.319,919.544,815.910,829.070,908.029,0.000,0.000,0
1512340287.323,921.189,832.360,830.715,906.384,0.000,0.000,0
1512340287.328,924.479,824.135,838.940,908.029,0.000,0.000,0
1512340287.332,901.449,810.975,837.295,906.384,0.000,0.000,0
1512340287.337,919.544,820.845,853.745,922.834,0.000,0.000,0
1512340287.341,917.899,802.750,850.455,906.384,0.000,0.000,0
1512340287.346,906.384,807.685,838.940,888.289,0.000,0.000,0
1512340287.350,912.964,799.460,845.520,870.195,0.000,0.000,0
1512340287.355,896.514,792.881,840.585,855.390,0.000,0.000,0
1512340287.359,891.579,807.685,843.875,858.680,0.000,0.000,0
1512340287.364,893.224,815.910,845.520,860.325,0.000,0.000,0
1512340287.368,898.159,812.620,852.100,876.775,0.000,0.000,0
1512340287.373,891.579,814.265,847.165,873.485,0.000,0.000,0
1512340287.377,889.934,812.620,843.875,868.550,0.000,0.000,0
1512340287.382,901.449,807.685,845.520,878.419,0.000,0.000,0
1512340287.386,889.934,819.200,842.230,873.485,0.000,0.000,0
1512340287.391,886.644,838.940,850.455,896.514,0.000,0.000,0
1512340287.396,889.934,822.490,847.165,917.899,0.000,0.000,0
1512340287.400,876.775,812.620,845.520,896.514,0.000,0.000,0
1512340287.405,873.485,812.620,847.165,889.934,0.000,0.000,0
1512340287.409,868.550,809.330,848.810,884.999,0.000,0.000,0
1512340287.414,871.840,817.555,850.455,884.999,0.000,0.000,0
1512340287.418,870.195,806.040,847.165,898.159,0.000,0.000,0
1512340287.423,880.064,787.946,822.490,904.739,0.000,0.000,0
1512340287.427,870.195,791.236,834.005,888.289,0.000,0.000,0
1512340287.432,868.550,810.975,871.840,875.130,0.000,0.000,0
1512340287.436,880.064,824.135,871.840,894.869,0.000,0.000,0
1512340287.441,876.775,802.750,860.325,883.354,0.000,0.000,0
1512340287.445,852.100,802.750,835.650,865.260,0.000,0.000,0
1512340287.450,855.390,815.910,847.165,865.260,0.000,0.000,0
1512340287.454,845.520,792.881,857.035,858.680,0.000,0.000,0
1512340287.459,860.325,820.845,871.840,870.195,0.000,0.000,0
1512340287.463,868.550,789.591,852.100,886.644,0.000,0.000,0
1512340287.468,868.550,797.815,838.940,883.354,0.000,0.000,0
1512340287.473,871.840,819.200,847.165,884.999,0.000,0.000,0
1512340287.477,880.064,812.620,871.840,868.550,0.000,0.000,0
1512340287.482,861.970,832.360,850.455,848.810,0.000,0.000,0
1512340287.486,860.325,810.975,855.390,861.970,0.000,0.000,0
1512340287.491,861.970,806.040,865.260,858.680,0.000,0.000,0
1512340287.495,866.905,801.105,853.745,861.970,0.000,0.000,0
1512340287.500,860.325,791.236,850.455,845.520,0.000,0.000,0
1512340287.504,853.745,804.395,848.810,830.715,0.000,0.000,0
1512340287.509,842.230,838.940,850.455,825.780,0.000,0.000,0
1512340287.513,860.325,817.555,852.100,852.100,0.000,0.000,0
1512340287.518,858.680,822.490,857.035,850.455,0.000,0.000,0
1512340287.522,847.165,810.975,852.100,852.100,0.000,0.000,0
1512340287.527,847.165,806.040,840.585,858.680,0.000,0.000,0
1512340287.531,840.585,819.200,843.875,853.745,0.000,0.000,0
1512340287.536,848.810,806.040,865.260,843.875,0.000,0.000,0
1512340287.540,843.875,796.170,852.100,843.875,0.000,0.000,0
1512340287.545,850.455,797.815,857.035,850.455,0.000,0.000,0
1512340287.550,842.230,830.715,853.745,838.940,0.000,0.000,0
1512340287.554,848.810,814.265,850.455,853.745,0.000,0.000,0
1512340287.559,843.875,801.105,848.810,840.585,0.000,0.000,0
1512340287.563,845.520,819.200,847.165,840.585,0.000,0.000,0
1512340287.568,847.165,829.070,845.520,852.100,0.000,0.000,0
1512340287.572,865.260,817.555,857.035,857.035,0.000,0.000,0
1512340287.577,853.745,810.975,855.390,855.390,0.000,0.000,0
1512340287.581,842.230,806.040,845.520,837.295,0.000,0.000,0
1512340287.586,848.810,820.845,847.165,830.715,0.000,0.000,0
1512340287.590,848.810,822.490,847.165,837.295,0.000,0.000,0
1512340287.595,860.325,829.070,853.745,853.745,0.000,0.000,0
1512340287.599,850.455,812.620,848.810,848.810,0.000,0.000,0
1512340287.604,866.905,807.685,847.165,866.905,0.000,0.000,0
1512340287.608,876.775,829.070,855.390,873.485,0.000,0.000,0
1512340287.613,852.100,802.750,858.680,861.970,0.000,0.000,0
1512340287.617,847.165,794.526,858.680,845.520,0.000,0.000,0
1512340287.622,845.520,822.490,853.745,832.360,0.000,0.000,0
1512340287.627,852.100,829.070,848.810,847.165,0.000,0.000,0
1512340287.631,883.354,819.200,857.035,883.354,0.000,0.000,0
1512340287.636,873.485,809.330,861.970,893.224,0.000,0.000,0
1512340287.640,889.934,799.460,863.615,903.094,0.000,0.000,0
1512340287.645,889.934,814.265,866.905,893.224,0.000,0.000,0
1512340287.649,878.419,820.845,860.325,876.775,0.000,0.000,0
1512340287.654,889.934,822.490,857.035,880.064,0.000,0.000,0
1512340287.658,868.550,799.460,857.035,860.325,0.000,0.000,0
1512340287.663,866.905,810.975,857.035,857.035,0.000,0.000,0
1512340287.667,866.905,824.135,855.390,861.970,0.000,0.000,0
1512340287.672,860.325,810.975,861.970,860.325,0.000,0.000,0
1512340287.676,870.195,832.360,861.970,871.840,0.000,0.000,0
1512340287.681,873.485,799.460,857.035,873.485,0.000,0.000,0
1512340287.685,861.970,801.105,861.970,847.165,0.000,0.000,0
1512340287.690,865.260,827.425,855.390,850.455,0.000,0.000,0
1512340287.694,860.325,810.975,853.745,837.295,0.000,0.000,0
1512340287.699,860.325,825.780,850.455,845.520,0.000,0.000,0
1512340287.704,860.325,822.490,852.100,860.325,0.000,0.000,0
1512340287.708,837.295,830.715,850.455,842.230,0.000,0.000,0
1512340287.713,870.195,815.910,857.035,863.615,0.000,0.000,0
1512340287.717,863.615,806.040,855.390,858.680,0.000,0.000,0
1512340287.722,853.745,810.975,853.745,845.520,0.000,0.000,0
1512340287.726,868.550,807.685,858.680,858.680,0.000,0.000,0
1512340287.731,855.390,843.875,848.810,843.875,0.000,0.000,0
1512340287.735,861.970,827.425,847.165,850.455,0.000,0.000,0
1512340287.740,863.615,814.265,848.810,847.165,0.000,0.000,0
1512340287.744,860.325,807.685,850.455,838.940,0.000,0.000,0
1512340287.749,852.100,820.845,850.455,843.875,0.000,0.000,0
1512340287.753,857.035,809.330,853.745,857.035,0.000,0.000,0
1512340287.758,848.810,804.395,853.745,860.325,0.000,0.000,0
1512340287.762,843.875,819.200,850.455,858.680,0.000,0.000,0
1512340287.767,857.035,809.330,848.810,853.745,0.000,0.000,0
1512340287.771,853.745,835.650,843.875,847.165,0.000,0.000,0
1512340287.776,850.455,822.490,850.455,842.230,0.000,0.000,0
1512340287.781,830.715,829.070,848.810,825.780,0.000,0.000,0
1512340287.785,829.070,827.425,853.745,840.585,0.000,0.000,0
1512340287.790,830.715,820.845,855.390,840.585,0.000,0.000,0
1512340287.794,835.650,809.330,850.455,848.810,0.000,0.000,0
1512340287.799,842.230,797.815,848.810,852.100,0.000,0.000,0
1512340287.803,843.875,810.975,850.455,845.520,0.000,0.000,0
1512340287.808,824.135,815.910,838.940,834.005,0.000,0.000,0
1512340287.812,837.295,814.265,843.875,853.745,0.000,0.000,0
1512340287.817,847.165,814.265,845.520,842.230,0.000,0.000,0
1512340287.821,838.940,830.715,840.585,837.295,0.000,0.000,0
1512340287.826,840.585,810.975,850.455,845.520,0.000,0.000,0
1512340287.830,847.165,819.200,848.810,845.520,0.000,0.000,0
1512340287.835,830.715,814.265,850.455,837.295,0.000,0.000,0
1512340287.839,838.940,809.330,847.165,842.230,0.000,0.000,0
1512340287.844,838.940,819.200,847.165,829.070,0.000,0.000,0
1512340287.848,832.360,829.070,845.520,829.070,0.000,0.000,0
1512340287.853,843.875,814.265,848.810,843.875,0.000,0.000,0
1512340287.858,848.810,825.780,850.455,840.585,0.000,0.000,0
1512340287.862,843.875,830.715,843.875,835.650,0.000,0.000,0
1512340287.867,842.230,825.780,843.875,837.295,0.000,0.000,0
1512340287.871,840.585,822.490,853.745,850.455,0.000,0.000,0
1512340287.876,838.940,824.135,848.810,838.940,0.000,0.000,0
1512340287.880,847.165,820.845,848.810,837.295,0.000,0.000,0
1512340287.885,843.875,815.910,842.230,840.585,0.000,0.000,0
1512340287.889,837.295,840.585,843.875,827.425,0.000,0.000,0
1512340287.894,829.070,832.360,847.165,847.165,0.000,0.000,0
1512340287.898,834.005,810.975,855.390,855.390,0.000,0.000,0
1512340287.903,835.650,834.005,850.455,838.940,0.000,0.000,0
1512340287.907,845.520,817.555,845.520,843.875,0.000,0.000,0
1512340287.912,835.650,814.265,847.165,840.585,0.000,0.000,0
1512340287.916,843.875,827.425,848.810,842.230,0.000,0.000,0
1512340287.921,834.005,830.715,843.875,834.005,0.000,0.000,0
1512340287.925,842.230,832.360,848.810,840.585,0.000,0.000,0
1512340287.930,848.810,837.295,843.875,845.520,0.000,0.000,0
1512340287.935,845.520,819.200,845.520,838.940,0.000,0.000,0
1512340287.939,843.875,809.330,845.520,842.230,0.000,0.000,0
1512340287.944,829.070,822.490,843.875,834.005,0.000,0.000,0
1512340287.948,830.715,834.005,848.810,832.360,0.000,0.000,0
1512340287.953,834.005,820.845,845.520,847.165,0.000,0.000,0
1512340287.957,843.875,817.555,845.520,842.230,0.000,0.000,0
1512340287.962,840.585,832.360,847.165,827.425,0.000,0.000,0
1512340287.966,840.585,830.715,848.810,835.650,0.000,0.000,0
1512340287.971,834.005,822.490,843.875,837.295,0.000,0.000,0
1512340287.975,847.165,825.780,843.875,838.940,0.000,0.000,0
1512340287.980,855.390,807.685,847.165,847.165,0.000,0.000,0
1512340287.984,855.390,830.715,852.100,837.295,0.000,0.000,0
1512340287.989,845.520,837.295,853.745,847.165,0.000,0.000,0
1512340287.993,829.070,810.975,848.810,835.650,0.000,0.000,0
1512340287.998,822.490,827.425,842.230,827.425,0.000,0.000,0
1512340288.002,830.715,817.555,845.520,838.940,0.000,0.000,0
1512340288.007,838.940,820.845,845.520,845.520,0.000,0.000,0
1512340288.012,840.585,830.715,843.875,843.875,0.000,0.000,0
1512340288.016,843.875,820.845,847.165,842.230,0.000,0.000,0
1512340288.021,845.520,820.845,848.810,840.585,0.000,0.000,0
1512340288.025,845.520,830.715,852.100,838.940,0.000,0.000,0
1512340288.030,838.940,835.650,852.100,840.585,0.000,0.000,0
1512340288.034,838.940,819.200,853.745,847.165,0.000,0.000,0
1512340288.039,837.295,820.845,850.455,843.875,0.000,0.000,0
1512340288.043,843.875,820.845,848.810,850.455,0.000,0.000,0
1512340288.048,853.745,812.620,855.390,861.970,0.000,0.000,0
1512340288.052,837.295,829.070,852.100,842.230,0.000,0.000,0
1512340288.057,845.520,825.780,853.745,837.295,0.000,0.000,0
1512340288.061,850.455,832.360,858.680,837.295,0.000,0.000,0
1512340288.066,848.810,835.650,848.810,843.875,0.000,0.000,0
1512340288.070,847.165,820.845,843.875,837.295,0.000,0.000,0
1512340288.075,843.875,817.555,843.875,835.650,0.000,0.000,0
1512340288.079,835.650,815.910,847.165,835.650,0.000,0.000,0
1512340288.084,845.520,820.845,845.520,845.520,0.000,0.000,0
1512340288.089,843.875,822.490,848.810,842.230,0.000,0.000,0
1512340288.093,840.585,824.135,850.455,843.875,0.000,0.000,0
1512340288.098,838.940,825.780,845.520,837.295,0.000,0.000,0
1512340288.102,840.585,812.620,852.100,843.875,0.000,0.000,0
1512340288.107,835.650,825.780,848.810,847.165,0.000,0.000,0
1512340288.111,842.230,807.685,850.455,853.745,0.000,0.000,0
1512340288.116,838.940,814.265,852.100,843.875,0.000,0.000,0
1512340288.120,837.295,830.715,848.810,835.650,0.000,0.000,0
1512340288.125,835.650,815.910,850.455,843.875,0.000,0.000,0
1512340288.129,838.940,812.620,848.810,843.875,0.000,0.000,0
1512340288.134,837.295,814.265,852.100,824.135,0.000,0.000,0
1512340288.138,834.005,832.360,850.455,832.360,0.000,0.000,0
1512340288.143,845.520,825.780,848.810,842.230,0.000,0.000,0
1512340288.147,837.295,815.910,847.165,838.940,0.000,0.000,0
1512340288.152,838.940,794.526,850.455,860.325,0.000,0.000,0
1512340288.156,855.390,801.105,853.745,853.745,0.000,0.000,0
1512340288.161,832.360,815.910,850.455,842.230,0.000,0.000,0
1512340288.166,847.165,812.620,847.165,837.295,0.000,0.000,0
1512340288.170,840.585,822.490,840.585,825.780,0.000,0.000,0
1512340288.175,834.005,812.620,842.230,825.780,0.000,0.000,0
1512340288.179,843.875,829.070,843.875,819.200,0.000,0.000,0
1512340288.184,838.940,825.780,842.230,830.715,0.000,0.000,0
1512340288.188,829.070,804.395,843.875,832.360,0.000,0.000,0
1512340288.193,830.715,804.395,845.520,834.005,0.000,0.000,0
1512340288.197,837.295,804.395,853.745,845.520,0.000,0.000,0
1512340288.202,834.005,819.200,852.100,829.070,0.000,0.000,0
1512340288.206,848.810,815.910,853.745,842.230,0.000,0.000,0
1512340288.211,842.230,812.620,848.810,847.165,0.000,0.000,0
1512340288.215,835.650,825.780,840.585,835.650,0.000,0.000,0
1512340288.220,835.650,807.685,847.165,852.100,0.000,0.000,0
1512340288.224,830.715,806.040,840.585,829.070,0.000,0.000,0
1512340288.229,832.360,809.330,845.520,834.005,0.000,0.000,0
1512340288.233,837.295,807.685,847.165,842.230,0.000,0.000,0
1512340288.238,852.100,814.265,845.520,842.230,0.000,0.000,0
1512340288.243,842.230,819.200,845.520,835.650,0.000,0.000,0
1512340288.247,829.070,822.490,847.165,838.940,0.000,0.000,0
1512340288.252,852.100,815.910,850.455,845.520,0.000,0.000,0
1512340288.256,850.455,810.975,847.165,838.940,0.000,0.000,0
1512340288.261,852.100,809.330,850.455,857.035,0.000,0.000,0
1512340288.265,848.810,801.105,848.810,838.940,0.000,0.000,0
1512340288.270,830.715,814.265,842.230,829.070,0.000,0.000,0
1512340288.274,840.585,810.975,847.165,840.585,0.000,0.000,0
1512340288.279,852.100,827.425,853.745,838.940,0.000,0.000,0
1512340288.283,845.520,829.070,843.875,840.585,0.000,0.000,0
1512340288.288,840.585,822.490,843.875,842.230,0.000,0.000,0
1512340288.292,834.005,822.490,840.585,829.070,0.000,0.000,0
1512340288.297,830.715,814.265,837.295,822.490,0.000,0.000,0
1512340288.301,834.005,807.685,845.520,843.875,0.000,0.000,0
1512340288.306,847.165,817.555,843.875,842.230,0.000,0.000,0
1512340288.310,845.520,824.135,842.230,847.165,0.000,0.000,0
1512340288.315,837.295,817.555,847.165,848.810,0.000,0.000,0
1512340288.320,837.295,820.845,850.455,837.295,0.000,0.000,0
1512340288.324,829.070,829.070,848.810,840.585,0.000,0.000,0
1512340288.329,848.810,802.750,848.810,853.745,0.000,0.000,0
1512340288.333,840.585,824.135,845.520,845.520,0.000,0.000,0
1512340288.338,840.585,815.910,847.165,847.165,0.000,0.000,0
1512340288.342,829.070,812.620,845.520,843.875,0.000,0.000,0
1512340288.347,840.585,801.105,848.810,840.585,0.000,0.000,0
1512340288.351,845.520,812.620,845.520,832.360,0.000,0.000,0
1512340288.356,853.745,810.975,845.520,848.810,0.000,0.000,0
1512340288.360,857.035,812.620,848.810,840.585,0.000,0.000,0
1512340288.365,837.295,824.135,845.520,843.875,0.000,0.000,0
1512340288.369,840.585,809.330,847.165,842.230,0.000,0.000,0
1512340288.374,835.650,812.620,845.520,830.715,0.000,0.000,0
1512340288.378,840.585,820.845,845.520,834.005,0.000,0.000,0
1512340288.383,843.875,819.200,847.165,835.650,0.000,0.000,0
1512340288.387,845.520,806.040,843.875,837.295,0.000,0.000,0
1512340288.392,845.520,807.685,840.585,824.135,0.000,0.000,0
1512340288.397,847.165,815.910,840.585,832.360,0.000,0.000,0
1512340288.401,852.100,810.975,845.520,838.940,0.000,0.000,0
1512340288.406,852.100,817.555,847.165,845.520,0.000,0.000,0
1512340288.410,850.455,801.105,850.455,852.100,0.000,0.000,0
1512340288.415,840.585,807.685,848.810,829.070,0.000,0.000,0
1512340288.419,834.005,819.200,850.455,840.585,0.000,0.000,0
1512340288.424,834.005,817.555,855.390,850.455,0.000,0.000,0
1512340288.428,847.165,819.200,848.810,834.005,0.000,0.000,0
1512340288.433,843.875,809.330,843.875,845.520,0.000,0.000,0
1512340288.437,838.940,807.685,845.520,834.005,0.000,0.000,0
1512340288.442,832.360,804.395,845.520,840.585,0.000,0.000,0
1512340288.446,832.360,810.975,848.810,848.810,0.000,0.000,0
1512340288.451,842.230,807.685,847.165,845.520,0.000,0.000,0
1512340288.455,847.165,802.750,847.165,842.230,0.000,0.000,0
1512340288.460,847.165,817.555,848.810,838.940,0.000,0.000,0
1512340288.464,837.295,819.200,850.455,842.230,0.000,0.000,0
1512340288.469,843.875,812.620,852.100,842.230,0.000,0.000,0
1512340288.474,835.650,809.330,847.165,835.650,0.000,0.000,0
1512340288.478,827.425,810.975,848.810,834.005,0.000,0.000,0
1512340288.483,832.360,812.620,848.810,838.940,0.000,0.000,0
1512340288.487,837.295,812.620,852.100,845.520,0.000,0.000,0
1512340288.492,843.875,799.460,848.810,852.100,0.000,0.000,0
1512340288.496,843.875,791.236,847.165,845.520,0.000,0.000,0
1512340288.501,830.715,825.780,845.520,829.070,0.000,0.000,0
1512340288.505,835.650,822.490,843.875,834.005,0.000,0.000,0
1512340288.510,845.520,809.330,847.165,825.780,0.000,0.000,0
1512340288.514,842.230,802.750,852.100,832.360,0.000,0.000,0
1512340288.519,842.230,814.265,848.810,819.200,0.000,0.000,0
1512340288.523,819.200,842.230,840.585,817.555,0.000,0.000,0
1512340288.528,837.295,812.620,845.520,850.455,0.000,0.000,0
1512340288.532,837.295,814.265,843.875,838.940,0.000,0.000,0
1512340288.537,845.520,799.460,847.165,850.455,0.000,0.000,0
1512340288.541,840.585,809.330,850.455,847.165,0.000,0.000,0
1512340288.546,847.165,834.005,845.520,837.295,0.000,0.000,0
1512340288.551,850.455,832.360,847.165,842.230,0.000,0.000,0
1512340288.555,840.585,827.425,850.455,842.230,0.000,0.000,0
1512340288.560,852.100,822.490,852.100,853.745,0.000,0.000,0
1512340288.564,861.970,810.975,848.810,858.680,0.000,0.000,0
1512340288.569,838.940,820.845,837.295,829.070,0.000,0.000,0
1512340288.573,843.875,817.555,843.875,827.425,0.000,0.000,0
1512340288.578,825.780,822.490,835.650,814.265,0.000,0.000,0
1512340288.582,837.295,817.555,837.295,824.135,0.000,0.000,0
1512340288.587,855.390,815.910,842.230,837.295,0.000,0.000,0
1512340288.591,845.520,817.555,838.940,827.425,0.000,0.000,0
1512340288.596,842.230,822.490,840.585,820.845,0.000,0.000,0
1512340288.600,845.520,822.490,837.295,827.425,0.000,0.000,0
1512340288.605,842.230,819.200,840.585,830.715,0.000,0.000,0
1512340288.609,837.295,827.425,838.940,817.555,0.000,0.000,0
1512340288.614,834.005,832.360,838.940,824.135,0.000,0.000,0
1512340288.618,845.520,820.845,842.230,837.295,0.000,0.000,0
1512340288.623,855.390,830.715,843.875,834.005,0.000,0.000,0
1512340288.628,853.745,814.265,843.875,840.585,0.000,0.000,0
1512340288.632,850.455,792.881,847.165,829.070,0.000,0.000,0
1512340288.637,857.035,807.685,847.165,802.750,0.000,0.000,0
1512340288.641,853.745,822.490,845.520,799.460,0.000,0.000,0
1512340288.646,840.585,804.395,847.165,802.750,0.000,0.000,0
1512340288.650,837.295,817.555,843.875,799.460,0.000,0.000,0
1512340288.655,829.070,819.200,840.585,812.620,0.000,0.000,0
1512340288.659,845.520,817.555,837.295,830.715,0.000,0.000,0
1512340288.664,850.455,837.295,838.940,825.780,0.000,0.000,0
1512340288.668,834.005,838.940,837.295,829.070,0.000,0.000,0
1512340288.673,834.005,815.910,837.295,835.650,0.000,0.000,0
1512340288.677,832.360,820.845,838.940,837.295,0.000,0.000,0
1512340288.682,824.135,829.070,842.230,848.810,0.000,0.000,0
1512340288.686,852.100,815.910,847.165,857.035,0.000,0.000,0
1512340288.691,850.455,827.425,843.875,847.165,0.000,0.000,0
1512340288.695,843.875,830.715,838.940,842.230,0.000,0.000,0
1512340288.700,850.455,810.975,843.875,852.100,0.000,0.000,0
1512340288.705,840.585,814.265,842.230,853.745,0.000,0.000,0
1512340288.709,848.810,809.330,847.165,857.035,0.000,0.000,3
1512340288.714,861.970,815.910,850.455,850.455,0.000,0.000,0
1512340288.718,834.005,829.070,835.650,832.360,0.000,0.000,0
1512340288.723,825.780,815.910,838.940,829.070,0.000,0.000,0
1512340288.727,832.360,819.200,834.005,827.425,0.000,0.000,0
1512340288.732,848.810,824.135,837.295,840.585,0.000,0.000,0
1512340288.736,850.455,822.490,842.230,845.520,0.000,0.000,0
1512340288.741,850.455,835.650,837.295,852.100,0.000,0.000,0
1512340288.745,848.810,809.330,845.520,861.970,0.000,0.000,0
1512340288.750,838.940,814.265,845.520,845.520,0.000,0.000,0
1512340288.754,847.165,815.910,845.520,845.520,0.000,0.000,0
1512340288.759,842.230,817.555,848.810,840.585,0.000,0.000,0
1512340288.763,845.520,830.715,848.810,843.875,0.000,0.000,0
1512340288.768,855.390,812.620,850.455,853.745,0.000,0.000,0
1512340288.772,853.745,812.620,850.455,850.455,0.000,0.000,0
1512340288.777,857.035,810.975,852.100,848.810,0.000,0.000,0
1512340288.782,838.940,815.910,848.810,837.295,0.000,0.000,0
1512340288.786,848.810,834.005,850.455,838.940,0.000,0.000,0
1512340288.791,838.940,817.555,843.875,830.715,0.000,0.000,0
1512340288.795,835.650,827.425,843.875,827.425,0.000,0.000,0
1512340288.800,850.455,815.910,847.165,842.230,0.000,0.000,0
1512340288.804,835.650,819.200,847.165,834.005,0.000,0.000,0
1512340288.809,843.875,830.715,847.165,837.295,0.000,0.000,0
1512340288.813,834.005,822.490,847.165,838.940,0.000,0.000,0
1512340288.818,837.295,809.330,845.520,837.295,0.000,0.000,0
1512340288.822,843.875,812.620,847.165,834.005,0.000,0.000,0
1512340288.827,843.875,827.425,845.520,830.715,0.000,0.000,0
1512340288.831,853.745,824.135,847.165,847.165,0.000,0.000,0
1512340288.836,842.230,832.360,848.810,832.360,0.000,0.000,0
1512340288.840,853.745,825.780,852.100,852.100,0.000,0.000,0
1512340288.845,848.810,801.105,855.390,848.810,0.000,0.000,0
1512340288.849,834.005,817.555,847.165,827.425,0.000,0.000,0
1512340288.854,840.585,812.620,850.455,842.230,0.000,0.000,0
1512340288.859,832.360,817.555,850.455,830.715,0.000,0.000,0
1512340288.863,840.585,829.070,847.165,827.425,0.000,0.000,0
1512340288.868,855.390,810.975,853.745,840.585,0.000,0.000,0
1512340288.872,857.035,814.265,853.745,847.165,0.000,0.000,0
1512340288.877,842.230,817.555,843.875,838.940,0.000,0.000,0
1512340288.881,838.940,815.910,850.455,848.810,0.000,0.000,0
1512340288.886,832.360,817.555,852.100,840.585,0.000,0.000,0
1512340288.890,830.715,807.685,850.455,837.295,0.000,0.000,0
1512340288.895,837.295,814.265,852.100,838.940,0.000,0.000,0
1512340288.899,837.295,820.845,850.455,845.520,0.000,0.000,0
1512340288.904,837.295,815.910,850.455,843.875,0.000,0.000,0
1512340288.908,838.940,824.135,852.100,837.295,0.000,0.000,0
1512340288.913,840.585,824.135,848.810,838.940,0.000,0.000,0
1512340288.917,837.295,810.975,848.810,838.940,0.000,0.000,0
1512340288.922,837.295,819.200,850.455,835.650,0.000,0.000,0
1512340288.926,857.035,812.620,853.745,852.100,0.000,0.000,0
1512340288.931,848.810,810.975,852.100,837.295,0.000,0.000,0
1512340288.936,835.650,834.005,845.520,830.715,0.000,0.000,0
1512340288.940,840.585,825.780,842.230,843.875,0.000,0.000,0
1512340288.945,847.165,810.975,847.165,852.100,0.000,0.000,0
1512340288.949,850.455,806.040,850.455,853.745,0.000,0.000,0
1512340288.954,848.810,807.685,850.455,840.585,0.000,0.000,0
1512340288.958,847.165,814.265,852.100,835.650,0.000,0.000,0
1512340288.963,842.230,824.135,848.810,837.295,0.000,0.000,0
1512340288.967,842.230,812.620,845.520,838.940,0.000,0.000,0
1512340288.972,843.875,814.265,847.165,835.650,0.000,0.000,0
1512340288.976,829.070,814.265,843.875,825.780,0.000,0.000,0
1512340288.981,834.005,820.845,848.810,842.230,0.000,0.000,0
1512340288.985,835.650,820.845,850.455,843.875,0.000,0.000,0
1512340288.990,838.940,812.620,850.455,843.875,0.000,0.000,0
1512340288.994,842.230,791.236,852.100,838.940,0.000,0.000,0
1512340288.999,834.005,812.620,847.165,820.845,0.000,0.000,0
1512340289.003,843.875,819.200,848.810,832.360,0.000,0.000,0
1512340289.008,842.230,812.620,848.810,832.360,0.000,0.000,0
1512340289.013,830.715,827.425,845.520,827.425,0.000,0.000,0
1512340289.017,835.650,807.685,847.165,838.940,0.000,0.000,0
1512340289.022,832.360,812.620,845.520,835.650,0.000,0.000,0
1512340289.026,834.005,824.135,845.520,832.360,0.000,0.000,0
1512340289.031,853.745,822.490,850.455,847.165,0.000,0.000,0
1512340289.035,852.100,835.650,850.455,845.520,0.000,0.000,0
1512340289.040,840.585,834.005,842.230,842.230,0.000,0.000,0
1512340289.044,838.940,801.105,847.165,855.390,0.000,0.000,0
1512340289.049,825.780,809.330,843.875,832.360,0.000,0.000,0
1512340289.053,840.585,807.685,845.520,835.650,0.000,0.000,0
1512340289.058,834.005,804.395,845.520,834.005,0.000,0.000,0
1512340289.062,840.585,817.555,845.520,829.070,0.000,0.000,0
1512340289.067,845.520,791.236,848.810,845.520,0.000,0.000,0
1512340289.071,830.715,830.715,843.875,829.070,0.000,0.000,0
1512340289.076,852.100,809.330,852.100,845.520,0.000,0.000,0
1512340289.080,847.165,824.135,850.455,832.360,0.000,0.000,0
1512340289.085,840.585,834.005,850.455,832.360,0.000,0.000,0
1512340289.090,845.520,817.555,852.100,834.005,0.000,0.000,0
1512340289.094,840.585,835.650,843.875,824.135,0.000,0.000,0
1512340289.099,834.005,812.620,842.230,830.715,0.000,0.000,0
1512340289.103,840.585,812.620,848.810,832.360,0.000,0.000,0
1512340289.108,845.520,819.200,847.165,832.360,0.000,0.000,0
1512340289.112,843.875,829.070,848.810,827.425,0.000,0.000,0
1512340289.117,850.455,814.265,850.455,838.940,0.000,0.000,0
1512340289.121,838.940,807.685,845.520,832.360,0.000,0.000,0
1512340289.126,837.295,817.555,845.520,834.005,0.000,0.000,0
1512340289.130,840.585,820.845,845.520,837.295,0.000,0.000,0
1512340289.135,837.295,815.910,852.100,837.295,0.000,0.000,0
1512340289.139,842.230,819.200,853.745,840.585,0.000,0.000,0
1512340289.144,840.585,806.040,853.745,840.585,0.000,0.000,0
1512340289.148,838.940,827.425,850.455,825.780,0.000,0.000,0
1512340289.153,840.585,842.230,843.875,834.005,0.000,0.000,0
1512340289.157,847.165,822.490,852.100,853.745,0.000,0.000,0
1512340289.162,845.520,814.265,852.100,852.100,0.000,0.000,0
1512340289.167,835.650,810.975,848.810,840.585,0.000,0.000,0
1512340289.171,835.650,817.555,852.100,825.780,0.000,0.000,0
1512340289.176,830.715,819.200,848.810,822.490,0.000,0.000,0
1512340289.180,835.650,829.070,847.165,829.070,0.000,0.000,0
1512340289.185,843.875,819.200,848.810,838.940,0.000,0.000,0
1512340289.189,840.585,822.490,848.810,835.650,0.000,0.000,0
1512340289.194,837.295,835.650,847.165,830.715,0.000,0.000,0
1512340289.198,838.940,819.200,842.230,834.005,0.000,0.000,0
1512340289.203,848.810,819.200,847.165,838.940,0.000,0.000,0
1512340289.207,837.295,819.200,842.230,832.360,0.000,0.000,0
1512340289.212,837.295,824.135,840.585,835.650,0.000,0.000,0
1512340289.216,840.585,809.330,843.875,840.585,0.000,0.000,0
1512340289.221,847.165,822.490,848.810,845.520,0.000,0.000,0
1512340289.225,860.325,815.910,848.810,852.100,0.000,0.000,0
1512340289.230,853.745,829.070,852.100,830.715,0.000,0.000,0
1512340289.234,843.875,842.230,850.455,830.715,0.000,0.000,0
1512340289.239,845.520,829.070,845.520,837.295,0.000,0.000,0
1512340289.244,843.875,817.555,845.520,838.940,0.000,0.000,0
1512340289.248,858.680,810.975,848.810,848.810,0.000,0.000,0
1512340289.253,855.390,807.685,848.810,843.875,0.000,0.000,0
1512340289.257,842.230,812.620,848.810,837.295,0.000,0.000,0
1512340289.262,842.230,832.360,852.100,845.520,0.000,0.000,0
1512340289.266,838.940,817.555,850.455,847.165,0.000,0.000,0
1512340289.271,842.230,801.105,848.810,842.230,0.000,0.000,0
1512340289.275,842.230,797.815,848.810,824.135,0.000,0.000,0
1512340289.280,842.230,807.685,848.810,806.040,0.000,0.000,0
1512340289.284,848.810,817.555,847.165,796.170,0.000,0.000,0
1512340289.289,842.230,825.780,845.520,801.105,0.000,0.000,0
1512340289.293,848.810,820.845,847.165,814.265,0.000,0.000,0
1512340289.298,843.875,819.200,843.875,820.845,0.000,0.000,0
1512340289.302,832.360,820.845,843.875,832.360,0.000,0.000,0
1512340289.307,835.650,829.070,845.520,842.230,0.000,0.000,0
1512340289.311,837.295,819.200,843.875,850.455,0.000,0.000,0
1512340289.316,843.875,807.685,845.520,852.100,0.000,0.000,0
1512340289.321,850.455,815.910,850.455,858.680,0.000,0.000,0
1512340289.325,847.165,809.330,848.810,853.745,0.000,0.000,0
1512340289.330,840.585,820.845,847.165,845.520,0.000,0.000,0
1512340289.334,840.585,834.005,843.875,848.810,0.000,0.000,0
1512340289.339,845.520,832.360,850.455,853.745,0.000,0.000,0
1512340289.343,842.230,815.910,845.520,855.390,0.000,0.000,0
1512340289.348,835.650,809.330,845.520,850.455,0.000,0.000,0
1512340289.352,835.650,809.330,843.875,845.520,0.000,0.000,0
1512340289.357,838.940,817.555,842.230,848.810,0.000,0.000,0
1512340289.361,852.100,804.395,850.455,853.745,0.000,0.000,0
1512340289.366,840.585,830.715,845.520,832.360,0.000,0.000,0
1512340289.370,840.585,820.845,845.520,842.230,0.000,0.000,0
1512340289.375,838.940,817.555,843.875,848.810,0.000,0.000,0
1512340289.379,843.875,814.265,848.810,858.680,0.000,0.000,0
1512340289.384,845.520,810.975,853.745,855.390,0.000,0.000,0
1512340289.388,842.230,812.620,850.455,838.940,0.000,0.000,0
1512340289.393,840.585,822.490,848.810,835.650,0.000,0.000,0
1512340289.398,853.745,802.750,850.455,855.390,0.000,0.000,0
1512340289.402,845.520,807.685,852.100,852.100,0.000,0.000,0
1512340289.407,840.585,815.910,850.455,840.585,0.000,0.000,0
1512340289.411,837.295,820.845,847.165,830.715,0.000,0.000,0
1512340289.416,837.295,829.070,843.875,834.005,0.000,0.000,0
1512340289.420,853.745,802.750,850.455,843.875,0.000,0.000,0
1512340289.425,845.520,820.845,850.455,830.715,0.000,0.000,0
1512340289.429,842.230,820.845,843.875,837.295,0.000,0.000,0
1512340289.434,842.230,810.975,843.875,835.650,0.000,0.000,0
1512340289.438,837.295,809.330,843.875,840.585,0.000,0.000,0
1512340289.443,842.230,794.526,850.455,848.810,0.000,0.000,0
1512340289.447,832.360,802.750,848.810,834.005,0.000,0.000,0
1512340289.452,824.135,830.715,845.520,827.425,0.000,0.000,0
1512340289.456,834.005,825.780,847.165,837.295,0.000,0.000,0
1512340289.461,843.875,824.135,850.455,845.520,0.000,0.000,0
1512340289.465,842.230,809.330,852.100,847.165,0.000,0.000,0
1512340289.470,840.585,796.170,845.520,840.585,0.000,0.000,0
1512340289.475,840.585,814.265,847.165,829.070,0.000,0.000,0
1512340289.479,835.650,827.425,847.165,827.425,0.000,0.000,0
1512340289.484,838.940,807.685,847.165,834.005,0.000,0.000,0
1512340289.488,837.295,804.395,850.455,829.070,0.000,0.000,0
1512340289.493,832.360,820.845,847.165,830.715,0.000,0.000,0
1512340289.497,835.650,809.330,843.875,837.295,0.000,0.000,0
1512340289.502,834.005,822.490,843.875,834.005,0.000,0.000,0
1512340289.506,838.940,810.975,843.875,847.165,0.000,0.000,0
1512340289.511,840.585,802.750,845.520,835.650,0.000,0.000,0
1512340289.515,834.005,830.715,842.230,820.845,0.000,0.000,0
1512340289.520,840.585,817.555,845.520,830.715,0.000,0.000,0
1512340289.524,838.940,814.265,845.520,819.200,0.000,0.000,0
1512340289.529,838.940,810.975,847.165,822.490,0.000,0.000,0
1512340289.533,842.230,819.200,850.455,822.490,0.000,0.000,0
1512340289.538,837.295,824.135,842.230,822.490,0.000,0.000,0
1512340289.542,837.295,819.200,840.585,837.295,0.000,0.000,0
1512340289.547,838.940,820.845,838.940,837.295,0.000,0.000,0
1512340289.552,847.165,829.070,847.165,843.875,0.000,0.000,0
1512340289.556,838.940,825.780,847.165,845.520,0.000,0.000,0
1512340289.561,838.940,804.395,850.455,842.230,0.000,0.000,0
1512340289.565,840.585,825.780,853.745,840.585,0.000,0.000,0
1512340289.570,850.455,810.975,855.390,848.810,0.000,0.000,0
1512340289.574,840.585,827.425,845.520,830.715,0.000,0.000,0
1512340289.579,842.230,829.070,845.520,842.230,0.000,0.000,0
1512340289.583,847.165,810.975,847.165,845.520,0.000,0.000,0
1512340289.588,847.165,812.620,845.520,842.230,0.000,0.000,0
1512340289.592,855.390,802.750,852.100,848.810,0.000,0.000,0
1512340289.597,840.585,809.330,845.520,835.650,0.000,0.000,0
1512340289.601,843.875,809.330,845.520,842.230,0.000,0.000,0
1512340289.606,838.940,815.910,848.810,837.295,0.000,0.000,0
1512340289.610,834.005,832.360,845.520,832.360,0.000,0.000,0
1512340289.615,837.295,814.265,848.810,845.520,0.000,0.000,0
1512340289.619,829.070,806.040,843.875,834.005,0.000,0.000,0
1512340289.624,834.005,809.330,845.520,834.005,0.000,0.000,0
1512340289.629,840.585,825.780,850.455,837.295,0.000,0.000,0
1512340289.633,838.940,820.845,853.745,835.650,0.000,0.000,0
1512340289.638,840.585,820.845,852.100,837.295,0.000,0.000,0
1512340289.642,835.650,820.845,848.810,835.650,0.000,0.000,0
1512340289.647,843.875,801.105,850.455,845.520,0.000,0.000,0
1512340289.651,842.230,817.555,852.100,840.585,0.000,0.000,0
1512340289.656,838.940,814.265,847.165,842.230,0.000,0.000,0
1512340289.660,843.875,802.750,850.455,840.585,0.000,0.000,0
1512340289.665,834.005,835.650,842.230,822.490,0.000,0.000,0
1512340289.669,838.940,825.780,843.875,832.360,0.000,0.000,0
1512340289.674,850.455,812.620,845.520,848.810,0.000,0.000,0
1512340289.678,850.455,809.330,845.520,850.455,0.000,0.000,0
1512340289.683,840.585,801.105,847.165,843.875,0.000,0.000,0
1512340289.687,838.940,809.330,848.810,840.585,0.000,0.000,0
1512340289.692,832.360,815.910,845.520,832.360,0.000,0.000,0
1512340289.697,843.875,819.200,848.810,845.520,0.000,0.000,0
1512340289.701,847.165,812.620,852.100,847.165,0.000,0.000,0
1512340289.706,835.650,819.200,852.100,832.360,0.000,0.000,0
1512340289.710,829.070,822.490,852.100,830.715,0.000,0.000,0
1512340289.715,829.070,806.040,852.100,837.295,0.000,0.000,0
1512340289.719,827.425,810.975,848.810,835.650,0.000,0.000,0
1512340289.724,834.005,804.395,853.745,845.520,0.000,0.000,0
1512340289.728,832.360,809.330,853.745,832.360,0.000,0.000,0
1512340289.733,820.845,819.200,848.810,824.135,0.000,0.000,0
1512340289.737,830.715,797.815,852.100,837.295,0.000,0.000,0
1512340289.742,827.425,820.845,850.455,827.425,0.000,0.000,0
1512340289.746,829.070,807.685,848.810,834.005,0.000,0.000,0
1512340289.751,837.295,804.395,853.745,838.940,0.000,0.000,0
1512340289.755,837.295,820.845,855.390,837.295,0.000,0.000,0
1512340289.760,832.360,812.620,847.165,832.360,0.000,0.000,0
1512340289.764,842.230,807.685,848.810,838.940,0.000,0.000,0
1512340289.769,838.940,804.395,850.455,830.715,0.000,0.000,0
1512340289.774,832.360,817.555,847.165,829.070,0.000,0.000,0
1512340289.778,834.005,819.200,848.810,837.295,0.000,0.000,0
1512340289.783,829.070,812.620,850.455,835.650,0.000,0.000,0
1512340289.787,832.360,810.975,847.165,834.005,0.000,0.000,0
1512340289.792,829.070,814.265,850.455,835.650,0.000,0.000,0
1512340289.796,832.360,810.975,852.100,838.940,0.000,0.000,0
1512340289.801,830.715,812.620,848.810,834.005,0.000,0.000,0
1512340289.805,842.230,820.845,853.745,843.875,0.000,0.000,0
1512340289.810,845.520,804.395,857.035,842.230,0.000,0.000,0
1512340289.814,835.650,829.070,850.455,827.425,0.000,0.000,0
1512340289.819,838.940,810.975,852.100,838.940,0.000,0.000,0
1512340289.823,827.425,810.975,847.165,829.070,0.000,0.000,0
1512340289.828,835.650,814.265,848.810,835.650,0.000,0.000,0
1512340289.832,840.585,819.200,853.745,842.230,0.000,0.000,0
1512340289.837,842.230,820.845,848.810,835.650,0.000,0.000,0
1512340289.841,843.875,820.845,853.745,842.230,0.000,0.000,0
1512340289.846,852.100,819.200,855.390,853.745,0.000,0.000,0
1512340289.851,847.165,809.330,848.810,837.295,0.000,0.000,0
1512340289.855,842.230,810.975,845.520,837.295,0.000,0.000,0
1512340289.860,840.585,815.910,843.875,840.585,0.000,0.000,0
1512340289.864,832.360,810.975,848.810,838.940,0.000,0.000,0
1512340289.869,838.940,815.910,852.100,842.230,0.000,0.000,0
1512340289.873,845.520,802.750,853.745,853.745,0.000,0.000,0
1512340289.878,838.940,807.685,850.455,835.650,0.000,0.000,0
1512340289.882,827.425,838.940,845.520,824.135,0.000,0.000,0
1512340289.887,830.715,837.295,845.520,835.650,0.000,0.000,0
1512340289.891,837.295,817.555,847.165,842.230,0.000,0.000,0
1512340289.896,847.165,802.750,852.100,850.455,0.000,0.000,0
1512340289.900,847.165,796.170,852.100,850.455,0.000,0.000,0
1512340289.905,845.520,812.620,852.100,834.005,0.000,0.000,0
1512340289.909,852.100,807.685,857.035,819.200,0.000,0.000,0
1512340289.914,845.520,810.975,848.810,799.460,0.000,0.000,0
1512340289.918,845.520,814.265,852.100,792.881,0.000,0.000,0
1512340289.923,842.230,814.265,848.810,799.460,0.000,0.000,0
1512340289.928,840.585,812.620,845.520,801.105,0.000,0.000,0
1512340289.932,840.585,817.555,848.810,802.750,0.000,0.000,0
1512340289.937,847.165,820.845,847.165,810.975,0.000,0.000,0
1512340289.941,848.810,820.845,850.455,817.555,0.000,0.000,0
1512340289.946,842.230,824.135,850.455,825.780,0.000,0.000,0
1512340289.950,832.360,829.070,840.585,837.295,0.000,0.000,0
1512340289.955,843.875,819.200,845.520,858.680,0.000,0.000,0
1512340289.959,842.230,825.780,837.295,845.520,0.000,0.000,0
1512340289.964,843.875,830.715,838.940,852.100,0.000,0.000,0
1512340289.968,838.940,827.425,845.520,852.100,0.000,0.000,0
1512340289.973,832.360,820.845,843.875,852.100,0.000,0.000,0
1512340289.977,840.585,806.040,847.165,866.905,0.000,0.000,0
1512340289.982,842.230,822.490,845.520,858.680,0.000,0.000,0
1512340289.986,845.520,806.040,848.810,861.970,0.000,0.000,0
1512340289.991,830.715,822.490,843.875,847.165,0.000,0.000,0
1512340289.995,835.650,825.780,843.875,848.810,0.000,0.000,0
1512340290.000,843.875,809.330,848.810,858.680,0.000,0.000,0
1512340290.005,837.295,815.910,847.165,840.585,0.000,0.000,0
1512340290.009,835.650,819.200,842.230,832.360,0.000,0.000,0
1512340290.014,837.295,812.620,848.810,842.230,0.000,0.000,0
1512340290.018,835.650,824.135,850.455,842.230,0.000,0.000,0
1512340290.023,838.940,817.555,848.810,845.520,0.000,0.000,0
1512340290.027,842.230,807.685,852.100,842.230,0.000,0.000,0
1512340290.032,840.585,819.200,850.455,832.360,0.000,0.000,0
1512340290.036,840.585,814.265,847.165,830.715,0.000,0.000,0
1512340290.041,832.360,834.005,843.875,825.780,0.000,0.000,0
1512340290.045,842.230,801.105,845.520,847.165,0.000,0.000,0
1512340290.050,837.295,802.750,848.810,840.585,0.000,0.000,0
1512340290.054,834.005,827.425,847.165,837.295,0.000,0.000,0
1512340290.059,850.455,814.265,852.100,838.940,0.000,0.000,0
1512340290.063,837.295,845.520,845.520,820.845,0.000,0.000,0
1512340290.068,845.520,827.425,843.875,827.425,0.000,0.000,0
1512340290.072,848.810,825.780,848.810,838.940,0.000,0.000,0
1512340290.077,847.165,806.040,848.810,847.165,0.000,0.000,0
1512340290.082,842.230,810.975,847.165,840.585,0.000,0.000,0
1512340290.086,845.520,820.845,845.520,840.585,0.000,0.000,0
1512340290.091,850.455,806.040,848.810,847.165,0.000,0.000,0
1512340290.095,838.940,819.200,843.875,838.940,0.000,0.000,0
1512340290.100,842.230,820.845,845.520,845.520,0.000,0.000,0
1512340290.104,842.230,815.910,853.745,838.940,0.000,0.000,0
1512340290.109,832.360,835.650,847.165,827.425,0.000,0.000,0
1512340290.113,847.165,829.070,855.390,845.520,0.000,0.000,0
1512340290.118,845.520,810.975,847.165,837.295,0.000,0.000,0
1512340290.122,847.165,819.200,842.230,832.360,0.000,0.000,0
1512340290.127,843.875,819.200,840.585,837.295,0.000,0.000,0
1512340290.131,840.585,814.265,843.875,840.585,0.000,0.000,0
1512340290.136,838.940,814.265,845.520,843.875,0.000,0.000,0
1512340290.140,840.585,819.200,843.875,837.295,0.000,0.000,0
1512340290.145,837.295,815.910,843.875,843.875,0.000,0.000,0
1512340290.149,847.165,814.265,847.165,842.230,0.000,0.000,0
1512340290.154,845.520,819.200,847.165,838.940,0.000,0.000,0
1512340290.159,837.295,822.490,843.875,837.295,0.000,0.000,0
1512340290.163,843.875,810.975,848.810,838.940,0.000,0.000,0
1512340290.168,842.230,812.620,847.165,842.230,0.000,0.000,0
1512340290.172,850.455,809.330,852.100,852.100,0.000,0.000,0
1512340290.177,848.810,819.200,852.100,837.295,0.000,0.000,0
1512340290.181,843.875,837.295,845.520,832.360,0.000,0.000,0
1512340290.186,838.940,824.135,843.875,838.940,0.000,0.000,0
1512340290.190,842.230,814.265,847.165,847.165,0.000,0.000,0
1512340290.195,848.810,802.750,848.810,847.165,0.000,0.000,0
1512340290.199,845.520,819.200,852.100,843.875,0.000,0.000,0
1512340290.204,847.165,806.040,852.100,847.165,0.000,0.000,0
1512340290.208,837.295,819.200,848.810,830.715,0.000,0.000,0
1512340290.213,843.875,815.910,848.810,838.940,0.000,0.000,0
1512340290.217,835.650,799.460,845.520,832.360,0.000,0.000,0
1512340290.222,829.070,819.200,843.875,822.490,0.000,0.000,0
1512340290.226,835.650,822.490,847.165,834.005,0.000,0.000,0
1512340290.231,835.650,810.975,848.810,835.650,0.000,0.000,0
1512340290.236,842.230,819.200,848.810,840.585,0.000,0.000,0
1512340290.240,842.230,802.750,848.810,843.875,0.000,0.000,0
1512340290.245,838.940,822.490,850.455,825.780,0.000,0.000,0
1512340290.249,838.940,824.135,848.810,830.715,0.000,0.000,0
1512340290.254,845.520,806.040,847.165,829.070,0.000,0.000,0
1512340290.258,840.585,825.780,843.875,830.715,0.000,0.000,0
1512340290.263,842.230,814.265,840.585,838.940,0.000,0.000,0
1512340290.267,842.230,834.005,842.230,837.295,0.000,0.000,0
1512340290.272,840.585,812.620,853.745,847.165,0.000,0.000,0
1512340290.276,827.425,809.330,853.745,832.360,0.000,0.000,0
1512340290.281,835.650,812.620,855.390,838.940,0.000,0.000,0
1512340290.285,835.650,809.330,857.035,835.650,0.000,0.000,0
1512340290.290,829.070,830.715,850.455,832.360,0.000,0.000,0
1512340290.294,837.295,802.750,852.100,847.165,0.000,0.000,0
1512340290.299,827.425,802.750,847.165,832.360,0.000,0.000,0
1512340290.303,834.005,809.330,850.455,835.650,0.000,0.000,0
1512340290.308,834.005,827.425,855.390,840.585,0.000,0.000,0
1512340290.313,835.650,810.975,850.455,843.875,0.000,0.000,0
1512340290.317,842.230,810.975,848.810,843.875,0.000,0.000,0
1512340290.322,843.875,807.685,848.810,850.455,0.000,0.000,0
1512340290.326,850.455,804.395,852.100,845.520,0.000,0.000,0
1512340290.331,837.295,822.490,845.520,825.780,0.000,0.000,0
1512340290.335,838.940,810.975,843.875,825.780,0.000,0.000,0
1512340290.340,825.780,822.490,838.940,814.265,0.000,0.000,0
1512340290.344,840.585,809.330,838.940,830.715,0.000,0.000,0
1512340290.349,837.295,812.620,845.520,830.715,0.000,0.000,0
1512340290.353,840.585,809.330,847.165,835.650,0.000,0.000,0
1512340290.358,848.810,814.265,845.520,835.650,0.000,0.000,0
1512340290.362,843.875,817.555,848.810,843.875,0.000,0.000,0
1512340290.367,843.875,815.910,847.165,845.520,0.000,0.000,0
1512340290.371,845.520,819.200,842.230,840.585,0.000,0.000,0
1512340290.376,845.520,819.200,838.940,842.230,0.000,0.000,0
1512340290.380,843.875,810.975,840.585,842.230,0.000,0.000,0
1512340290.385,845.520,812.620,842.230,845.520,0.000,0.000,0
1512340290.390,845.520,791.236,847.165,852.100,0.000,0.000,0
1512340290.394,834.005,814.265,848.810,843.875,0.000,0.000,0
1512340290.399,850.455,822.490,852.100,852.100,0.000,0.000,0
1512340290.403,842.230,819.200,847.165,847.165,0.000,0.000,0
1512340290.408,845.520,824.135,842.230,845.520,0.000,0.000,0
1512340290.412,847.165,810.975,845.520,848.810,0.000,0.000,0
1512340290.417,837.295,817.555,842.230,847.165,0.000,0.000,0
1512340290.421,842.230,822.490,845.520,848.810,0.000,0.000,0
1512340290.426,847.165,824.135,843.875,842.230,0.000,0.000,0
1512340290.430,855.390,814.265,847.165,848.810,0.000,0.000,0
1512340290.435,848.810,815.910,847.165,843.875,0.000,0.000,0
1512340290.439,840.585,815.910,845.520,847.165,0.000,0.000,0
1512340290.444,843.875,817.555,845.520,848.810,0.000,0.000,0
1512340290.448,838.940,824.135,847.165,845.520,0.000,0.000,0
1512340290.453,848.810,822.490,850.455,857.035,0.000,0.000,0
1512340290.457,853.745,802.750,853.745,855.390,0.000,0.000,0
1512340290.462,845.520,824.135,850.455,843.875,0.000,0.000,0
1512340290.467,847.165,819.200,845.520,843.875,0.000,0.000,0
1512340290.471,842.230,819.200,848.810,843.875,0.000,0.000,0
1512340290.476,843.875,825.780,847.165,845.520,0.000,0.000,0
1512340290.480,852.100,817.555,850.455,845.520,0.000,0.000,0
1512340290.485,838.940,843.875,847.165,845.520,0.000,0.000,0
1512340290.489,840.585,819.200,843.875,852.100,0.000,0.000,0
1512340290.494,837.295,807.685,845.520,848.810,0.000,0.000,0
1512340290.498,837.295,802.750,843.875,845.520,0.000,0.000,0
1512340290.503,845.520,797.815,850.455,855.390,0.000,0.000,0
1512340290.507,842.230,827.425,850.455,842.230,0.000,0.000,0
1512340290.512,847.165,825.780,848.810,838.940,0.000,0.000,0
1512340290.516,848.810,827.425,845.520,832.360,0.000,0.000,0
1512340290.521,843.875,820.845,848.810,822.490,0.000,0.000,0
1512340290.525,834.005,832.360,845.520,825.780,0.000,0.000,0
1512340290.530,842.230,815.910,848.810,840.585,0.000,0.000,0
1512340290.534,830.715,815.910,848.810,838.940,0.000,0.000,0
1512340290.539,845.520,797.815,852.100,845.520,0.000,0.000,0
1512340290.544,845.520,804.395,853.745,834.005,0.000,0.000,0
1512340290.548,842.230,825.780,848.810,829.070,0.000,0.000,0
1512340290.553,848.810,815.910,845.520,829.070,0.000,0.000,0
1512340290.557,838.940,825.780,847.165,825.780,0.000,0.000,0
1512340290.562,842.230,829.070,850.455,835.650,0.000,0.000,0
1512340290.566,843.875,814.265,847.165,835.650,0.000,0.000,0
1512340290.571,843.875,822.490,845.520,829.070,0.000,0.000,0
1512340290.575,838.940,817.555,842.230,835.650,0.000,0.000,0
1512340290.580,842.230,806.040,847.165,843.875,0.000,0.000,0
1512340290.584,837.295,825.780,842.230,837.295,0.000,0.000,0
1512340290.589,848.810,815.910,845.520,853.745,0.000,0.000,0
1512340290.593,847.165,817.555,847.165,850.455,0.000,0.000,0
1512340290.598,840.585,825.780,842.230,842.230,0.000,0.000,0
1512340290.602,850.455,814.265,847.165,853.745,0.000,0.000,0
1512340290.607,848.810,812.620,847.165,842.230,0.000,0.000,0
1512340290.611,843.875,812.620,848.810,837.295,0.000,0.000,0
1512340290.616,845.520,815.910,848.810,835.650,0.000,0.000,0
1512340290.621,838.940,810.975,848.810,835.650,0.000,0.000,0
1512340290.625,838.940,820.845,843.875,835.650,0.000,0.000,0
1512340290.630,845.520,810.975,847.165,850.455,0.000,0.000,0
1512340290.634,842.230,817.555,847.165,840.585,0.000,0.000,0
1512340290.639,843.875,822.490,845.520,832.360,0.000,0.000,0
1512340290.643,850.455,814.265,847.165,840.585,0.000,0.000,0
1512340290.648,850.455,807.685,852.100,845.520,0.000,0.000,0
1512340290.652,848.810,819.200,850.455,843.875,0.000,0.000,0
1512340290.657,847.165,824.135,840.585,843.875,0.000,0.000,0
1512340290.661,850.455,814.265,848.810,848.810,0.000,0.000,0
1512340290.666,837.295,829.070,845.520,832.360,0.000,0.000,0
1512340290.670,845.520,815.910,850.455,842.230,0.000,0.000,0
1512340290.675,845.520,801.105,857.035,848.810,0.000,0.000,0
1512340290.679,837.295,817.555,848.810,834.005,0.000,0.000,0
1512340290.684,845.520,806.040,853.745,847.165,0.000,0.000,0
1512340290.688,842.230,802.750,852.100,845.520,0.000,0.000,0
1512340290.693,827.425,806.040,848.810,830.715,0.000,0.000,0
1512340290.698,834.005,829.070,847.165,832.360,0.000,0.000,0
1512340290.702,832.360,820.845,847.165,835.650,0.000,0.000,0
1512340290.707,837.295,820.845,847.165,838.940,0.000,0.000,0
1512340290.711,848.810,801.105,853.745,850.455,0.000,0.000,0
1512340290.716,840.585,804.395,852.100,842.230,0.000,0.000,0
1512340290.720,837.295,817.555,852.100,825.780,0.000,0.000,0
1512340290.725,837.295,825.780,850.455,830.715,0.000,0.000,0
1512340290.729,842.230,806.040,850.455,840.585,0.000,0.000,0
1512340290.734,850.455,807.685,852.100,843.875,0.000,0.000,0
1512340290.738,840.585,817.555,847.165,830.715,0.000,0.000,0
1512340290.743,843.875,815.910,845.520,832.360,0.000,0.000,0
1512340290.747,842.230,810.975,848.810,837.295,0.000,0.000,0
1512340290.752,837.295,810.975,852.100,847.165,0.000,0.000,0
1512340290.756,853.745,812.620,857.035,848.810,0.000,0.000,0
1512340290.761,840.585,824.135,847.165,827.425,0.000,0.000,0
1512340290.765,840.585,812.620,847.165,829.070,0.000,0.000,0
1512340290.770,837.295,822.490,848.810,822.490,0.000,0.000,0
1512340290.775,838.940,829.070,850.455,834.005,0.000,0.000,0
1512340290.779,837.295,819.200,850.455,834.005,0.000,0.000,0
1512340290.784,842.230,824.135,847.165,835.650,0.000,0.000,0
1512340290.788,845.520,789.591,852.100,855.390,0.000,0.000,0
1512340290.793,835.650,802.750,848.810,840.585,0.000,0.000,0
1512340290.797,842.230,815.910,850.455,847.165,0.000,0.000,0
1512340290.802,842.230,812.620,852.100,840.585,0.000,0.000,0
1512340290.806,835.650,829.070,847.165,832.360,0.000,0.000,0
1512340290.811,842.230,814.265,848.810,842.230,0.000,0.000,0
1512340290.815,838.940,814.265,850.455,838.940,0.000,0.000,0
1512340290.820,837.295,815.910,853.745,845.520,0.000,0.000,0
1512340290.824,843.875,810.975,858.680,837.295,0.000,0.000,0
1512340290.829,842.230,829.070,855.390,829.070,0.000,0.000,0
1512340290.833,842.230,807.685,852.100,835.650,0.000,0.000,0
1512340290.838,834.005,817.555,845.520,820.845,0.000,0.000,0
1512340290.842,834.005,810.975,845.520,837.295,0.000,0.000,0
1512340290.847,832.360,804.395,850.455,837.295,0.000,0.000,0
1512340290.852,834.005,817.555,855.390,835.650,0.000,0.000,0
1512340290.856,837.295,827.425,850.455,840.585,0.000,0.000,0
1512340290.861,834.005,809.330,850.455,838.940,0.000,0.000,0
1512340290.865,830.715,809.330,848.810,832.360,0.000,0.000,0
1512340290.870,825.780,807.685,845.520,827.425,0.000,0.000,0
1512340290.874,829.070,814.265,847.165,827.425,0.000,0.000,0
1512340290.879,827.425,814.265,848.810,827.425,0.000,0.000,0
1512340290.883,827.425,822.490,843.875,824.135,0.000,0.000,0
1512340290.888,835.650,794.526,848.810,840.585,0.000,0.000,0
1512340290.892,835.650,789.591,850.455,835.650,0.000,0.000,0
1512340290.897,827.425,806.040,840.585,829.070,0.000,0.000,0
1512340290.901,835.650,806.040,845.520,840.585,0.000,0.000,0
1512340290.906,837.295,812.620,847.165,829.070,0.000,0.000,0
1512340290.910,835.650,825.780,847.165,824.135,0.000,0.000,0
1512340290.915,838.940,822.490,847.165,829.070,0.000,0.000,0
1512340290.919,829.070,810.975,847.165,838.940,0.000,0.000,0
1512340290.924,834.005,809.330,845.520,843.875,0.000,0.000,0
1512340290.929,837.295,810.975,850.455,837.295,0.000,0.000,0
1512340290.933,838.940,814.265,852.100,834.005,0.000,0.000,0
1512340290.938,840.585,824.135,847.165,819.200,0.000,0.000,0
1512340290.942,835.650,817.555,845.520,829.070,0.000,0.000,0
1512340290.947,837.295,792.881,847.165,834.005,0.000,0.000,0
1512340290.951,842.230,815.910,847.165,825.780,0.000,0.000,0
1512340290.956,840.585,830.715,845.520,825.780,0.000,0.000,0
1512340290.960,848.810,820.845,850.455,837.295,0.000,0.000,0
1512340290.965,845.520,819.200,847.165,835.650,0.000,0.000,0
1512340290.969,842.230,801.105,847.165,840.585,0.000,0.000,0
1512340290.974,845.520,802.750,852.100,838.940,0.000,0.000,0
1512340290.978,843.875,812.620,848.810,840.585,0.000,0.000,0
1512340290.983,842.230,820.845,848.810,835.650,0.000,0.000,0
1512340290.987,838.940,819.200,848.810,824.135,0.000,0.000,0
1512340290.992,824.135,819.200,847.165,829.070,0.000,0.000,0
1512340290.996,825.780,820.845,845.520,827.425,0.000,0.000,0
1512340291.001,830.715,810.975,847.165,837.295,0.000,0.000,0
1512340291.006,845.520,802.750,853.745,855.390,0.000,0.000,0
1512340291.010,842.230,822.490,848.810,837.295,0.000,0.000,0
1512340291.015,835.650,814.265,845.520,837.295,0.000,0.000,0
1512340291.019,834.005,815.910,842.230,830.715,0.000,0.000,0
1512340291.024,822.490,819.200,840.585,834.005,0.000,0.000,0
1512340291.028,837.295,817.555,848.810,845.520,0.000,0.000,0
1512340291.033,835.650,824.135,848.810,845.520,0.000,0.000,0
1512340291.037,842.230,810.975,850.455,850.455,0.000,0.000,0
1512340291.042,838.940,822.490,848.810,835.650,0.000,0.000,0
1512340291.046,838.940,814.265,848.810,838.940,0.000,0.000,0
1512340291.051,834.005,807.685,852.100,837.295,0.000,0.000,0
1512340291.055,834.005,834.005,847.165,835.650,0.000,0.000,0
1512340291.060,845.520,809.330,847.165,850.455,0.000,0.000,0
1512340291.064,840.585,815.910,850.455,850.455,0.000,0.000,0
1512340291.069,837.295,829.070,845.520,845.520,0.000,0.000,0
1512340291.073,840.585,817.555,845.520,848.810,0.000,0.000,0
1512340291.078,843.875,812.620,845.520,847.165,0.000,0.000,0
1512340291.083,845.520,809.330,847.165,838.940,0.000,0.000,0
1512340291.087,848.810,814.265,852.100,840.585,0.000,0.000,0
1512340291.092,835.650,822.490,843.875,834.005,0.000,0.000,0
1512340291.096,835.650,827.425,845.520,838.940,0.000,0.000,0
1512340291.101,840.585,827.425,845.520,848.810,0.000,0.000,0
1512340291.105,847.165,806.040,848.810,855.390,0.000,0.000,0
1512340291.110,842.230,825.780,847.165,842.230,0.000,0.000,0
1512340291.114,847.165,819.200,847.165,847.165,0.000,0.000,0
1512340291.119,850.455,817.555,847.165,850.455,0.000,0.000,0
1512340291.123,850.455,809.330,848.810,843.875,0.000,0.000,0
1512340291.128,847.165,827.425,845.520,835.650,0.000,0.000,0
1512340291.132,843.875,812.620,845.520,838.940,0.000,0.000,0
1512340291.137,830.715,819.200,842.230,829.070,0.000,0.000,0
1512340291.141,838.940,812.620,845.520,845.520,0.000,0.000,0
1512340291.146,848.810,809.330,850.455,847.165,0.000,0.000,0
1512340291.150,848.810,822.490,845.520,842.230,0.000,0.000,0
1512340291.155,837.295,829.070,845.520,837.295,0.000,0.000,0
1512340291.160,837.295,807.685,847.165,842.230,0.000,0.000,0
1512340291.164,840.585,810.975,847.165,843.875,0.000,0.000,0
1512340291.169,842.230,820.845,848.810,837.295,0.000,0.000,0
1512340291.173,842.230,824.135,847.165,835.650,0.000,0.000,0
1512340291.178,838.940,822.490,847.165,840.585,0.000,0.000,0
1512340291.182,830.715,820.845,847.165,838.940,0.000,0.000,0
1512340291.187,840.585,804.395,850.455,848.810,0.000,0.000,0
1512340291.191,840.585,799.460,850.455,832.360,0.000,0.000,0
1512340291.196,834.005,810.975,845.520,814.265,0.000,0.000,0
1512340291.200,845.520,817.555,845.520,817.555,0.000,0.000,0
1512340291.205,838.940,812.620,848.810,825.780,0.000,0.000,0
1512340291.209,830.715,810.975,847.165,822.490,0.000,0.000,0
1512340291.214,837.295,825.780,845.520,820.845,0.000,0.000,0
1512340291.218,842.230,820.845,842.230,834.005,0.000,0.000,0
1512340291.223,850.455,834.005,837.295,832.360,0.000,0.000,0
1512340291.227,838.940,824.135,835.650,835.650,0.000,0.000,0
1512340291.232,834.005,820.845,838.940,832.360,0.000,0.000,0
1512340291.237,829.070,832.360,837.295,822.490,0.000,0.000,0
1512340291.241,834.005,829.070,835.650,830.715,0.000,0.000,0
1512340291.246,838.940,820.845,834.005,829.070,0.000,0.000,0
1512340291.250,827.425,815.910,832.360,825.780,0.000,0.000,0
1512340291.255,824.135,834.005,827.425,810.975,0.000,0.000,0
1512340291.259,830.715,822.490,827.425,814.265,0.000,0.000,0
1512340291.264,832.360,824.135,827.425,817.555,0.000,0.000,0
1512340291.268,834.005,825.780,825.780,825.780,0.000,0.000,0
1512340291.273,840.585,815.910,834.005,827.425,0.000,0.000,0
1512340291.277,830.715,832.360,832.360,812.620,0.000,0.000,0
1512340291.282,842.230,820.845,834.005,819.200,0.000,0.000,0
1512340291.286,837.295,832.360,835.650,814.265,0.000,0.000,0
1512340291.291,838.940,832.360,834.005,830.715,0.000,0.000,0
1512340291.295,835.650,830.715,832.360,827.425,0.000,0.000,0
1512340291.300,835.650,825.780,830.715,820.845,0.000,0.000,0
1512340291.304,835.650,830.715,830.715,820.845,0.000,0.000,0
1512340291.309,837.295,825.780,835.650,834.005,0.000,0.000,0
1512340291.314,837.295,827.425,838.940,830.715,0.000,0.000,0
1512340291.318,830.715,822.490,838.940,820.845,0.000,0.000,0
1512340291.323,824.135,829.070,837.295,817.555,0.000,0.000,0
1512340291.327,832.360,822.490,840.585,824.135,0.000,0.000,0
1512340291.332,832.360,830.715,840.585,829.070,0.000,0.000,0
1512340291.336,842.230,810.975,842.230,832.360,0.000,0.000,0
1512340291.341,845.520,820.845,838.940,820.845,0.000,0.000,0
1512340291.345,842.230,825.780,837.295,825.780,0.000,0.000,0
1512340291.350,835.650,815.910,843.875,837.295,0.000,0.000,0
1512340291.354,825.780,834.005,837.295,829.070,0.000,0.000,0
1512340291.359,835.650,824.135,840.585,842.230,0.000,0.000,0
1512340291.363,850.455,830.715,845.520,838.940,0.000,0.000,0
1512340291.368,847.165,825.780,843.875,834.005,0.000,0.000,0
1512340291.372,837.295,830.715,837.295,837.295,0.000,0.000,0
1512340291.377,847.165,824.135,835.650,842.230,0.000,0.000,0
1512340291.381,842.230,825.780,832.360,837.295,0.000,0.000,0
1512340291.386,843.875,820.845,835.650,838.940,0.000,0.000,0
1512340291.391,847.165,812.620,842.230,842.230,0.000,0.000,0
1512340291.395,847.165,825.780,845.520,843.875,0.000,0.000,0
1512340291.400,850.455,814.265,842.230,855.390,0.000,0.000,0
1512340291.404,857.035,802.750,848.810,861.970,0.000,0.000,0
1512340291.409,855.390,814.265,847.165,850.455,0.000,0.000,0
1512340291.413,852.100,834.005,843.875,847.165,0.000,0.000,0
1512340291.418,835.650,835.650,842.230,827.425,0.000,0.000,0
1512340291.422,827.425,832.360,835.650,822.490,0.000,0.000,0
1512340291.427,815.910,820.845,835.650,824.135,0.000,0.000,0
1512340291.431,824.135,804.395,838.940,817.555,0.000,0.000,0
1512340291.436,822.490,822.490,842.230,819.200,0.000,0.000,0
1512340291.440,824.135,822.490,847.165,820.845,0.000,0.000,0
1512340291.445,815.910,820.845,845.520,814.265,0.000,0.000,0
1512340291.449,820.845,819.200,843.875,815.910,0.000,0.000,0
1512340291.454,822.490,819.200,840.585,814.265,0.000,0.000,0
1512340291.458,829.070,812.620,842.230,824.135,0.000,0.000,0
1512340291.463,829.070,817.555,843.875,825.780,0.000,0.000,0
1512340291.468,827.425,820.845,842.230,824.135,0.000,0.000,0
1512340291.472,827.425,814.265,838.940,830.715,0.000,0.000,0
1512340291.477,827.425,804.395,838.940,827.425,0.000,0.000,0
1512340291.481,832.360,824.135,847.165,838.940,0.000,0.000,0
1512340291.486,848.810,807.685,853.745,852.100,0.000,0.000,0
1512340291.490,838.940,827.425,850.455,832.360,0.000,0.000,0
1512340291.495,838.940,845.520,842.230,829.070,0.000,0.000,0
1512340291.499,842.230,825.780,835.650,843.875,0.000,0.000,0
1512340291.504,842.230,822.490,842.230,852.100,0.000,0.000,0
1512340291.508,842.230,809.330,852.100,853.745,0.000,0.000,0
1512340291.513,834.005,807.685,847.165,842.230,0.000,0.000,0
1512340291.517,834.005,825.780,843.875,829.070,0.000,0.000,0
1512340291.522,837.295,825.780,842.230,824.135,0.000,0.000,0
1512340291.526,843.875,810.975,845.520,832.360,0.000,0.000,0
1512340291.531,847.165,807.685,845.520,835.650,0.000,0.000,0
1512340291.535,848.810,804.395,848.810,832.360,0.000,0.000,0
1512340291.540,842.230,809.330,848.810,827.425,0.000,0.000,0
1512340291.545,835.650,819.200,847.165,825.780,0.000,0.000,0
1512340291.549,832.360,825.780,847.165,822.490,0.000,0.000,0
1512340291.554,843.875,814.265,848.810,840.585,0.000,0.000,0
1512340291.558,838.940,835.650,845.520,834.005,0.000,0.000,0
1512340291.563,837.295,810.975,842.230,832.360,0.000,0.000,0
1512340291.567,835.650,817.555,847.165,827.425,0.000,0.000,0
1512340291.572,837.295,829.070,842.230,832.360,0.000,0.000,0
1512340291.576,843.875,804.395,843.875,847.165,0.000,0.000,0
1512340291.581,842.230,812.620,847.165,847.165,0.000,0.000,0
1512340291.585,835.650,809.330,845.520,834.005,0.000,0.000,0
1512340291.590,829.070,827.425,847.165,834.005,0.000,0.000,0
1512340291.594,834.005,822.490,852.100,840.585,0.000,0.000,0
1512340291.599,838.940,824.135,850.455,840.585,0.000,0.000,0
1512340291.603,837.295,829.070,848.810,845.520,0.000,0.000,0
1512340291.608,845.520,815.910,850.455,843.875,0.000,0.000,0
1512340291.612,835.650,829.070,847.165,834.005,0.000,0.000,0
1512340291.617,834.005,812.620,843.875,845.520,0.000,0.000,0
1512340291.622,845.520,799.460,848.810,853.745,0.000,0.000,0
1512340291.626,840.585,822.490,847.165,842.230,0.000,0.000,0
1512340291.631,848.810,817.555,847.165,847.165,0.000,0.000,0
1512340291.635,852.100,817.555,848.810,842.230,0.000,0.000,0
1512340291.640,848.810,814.265,848.810,835.650,0.000,0.000,0
1512340291.644,842.230,827.425,848.810,843.875,0.000,0.000,0
1512340291.649,842.230,814.265,850.455,845.520,0.000,0.000,0
1512340291.653,835.650,830.715,848.810,829.070,0.000,0.000,0
1512340291.658,837.295,807.685,847.165,842.230,0.000,0.000,0
1512340291.662,847.165,810.975,857.035,847.165,0.000,0.000,0
1512340291.667,847.165,829.070,852.100,850.455,0.000,0.000,0
1512340291.671,827.425,830.715,845.520,834.005,0.000,0.000,0
1512340291.676,838.940,817.555,843.875,834.005,0.000,0.000,0
1512340291.680,845.520,814.265,842.230,829.070,0.000,0.000,0
1512340291.685,835.650,810.975,843.875,824.135,0.000,0.000,0
1512340291.689,842.230,810.975,843.875,829.070,0.000,0.000,0
1512340291.694,834.005,812.620,838.940,822.490,0.000,0.000,0
1512340291.699,829.070,814.265,838.940,832.360,0.000,0.000,0
1512340291.703,837.295,815.910,843.875,850.455,0.000,0.000,0
1512340291.708,842.230,837.295,850.455,845.520,0.000,0.000,0
1512340291.712,827.425,852.100,843.875,829.070,0.000,0.000,0
1512340291.717,830.715,825.780,845.520,835.650,0.000,0.000,0
1512340291.721,837.295,822.490,842.230,847.165,0.000,0.000,0
1512340291.726,850.455,807.685,842.230,853.745,0.000,0.000,0
1512340291.730,850.455,802.750,845.520,848.810,0.000,0.000,0
1512340291.735,847.165,797.815,840.585,837.295,0.000,0.000,0
1512340291.739,838.940,807.685,848.810,850.455,0.000,0.000,0
1512340291.744,834.005,820.845,842.230,837.295,0.000,0.000,0
1512340291.748,848.810,819.200,850.455,845.520,0.000,0.000,0
1512340291.753,842.230,842.230,843.875,834.005,0.000,0.000,0
1512340291.757,834.005,817.555,837.295,830.715,0.000,0.000,0
1512340291.762,832.360,812.620,842.230,832.360,0.000,0.000,0
1512340291.766,824.135,806.040,837.295,834.005,0.000,0.000,0
1512340291.771,835.650,797.815,845.520,825.780,0.000,0.000,0
1512340291.776,838.940,807.685,842.230,817.555,0.000,0.000,0
1512340291.780,840.585,804.395,840.585,838.940,0.000,0.000,0
1512340291.785,850.455,830.715,843.875,830.715,0.000,0.000,0
1512340291.789,842.230,827.425,847.165,843.875,0.000,0.000,0
1512340291.794,838.940,819.200,843.875,835.650,0.000,0.000,0
1512340291.798,835.650,794.526,842.230,827.425,0.000,0.000,0
1512340291.803,840.585,794.526,842.230,825.780,0.000,0.000,0
1512340291.807,824.135,820.845,834.005,815.910,0.000,0.000,0
1512340291.812,825.780,817.555,834.005,822.490,0.000,0.000,0
1512340291.816,832.360,815.910,837.295,822.490,0.000,0.000,0
1512340291.821,819.200,787.946,840.585,830.715,0.000,0.000,0
1512340291.825,837.295,806.040,840.585,832.360,0.000,0.000,0
1512340291.830,843.875,801.105,847.165,838.940,0.000,0.000,0
1512340291.834,817.555,812.620,842.230,817.555,0.000,0.000,0
1512340291.839,829.070,802.750,835.650,806.040,0.000,0.000,0
1512340291.843,838.940,810.975,835.650,817.555,0.000,0.000,0
1512340291.848,827.425,817.555,832.360,820.845,0.000,0.000,0
1512340291.853,855.390,802.750,837.295,842.230,0.000,0.000,0
1512340291.857,847.165,810.975,842.230,830.715,0.000,0.000,0
1512340291.862,840.585,809.330,845.520,825.780,0.000,0.000,0
1512340291.866,837.295,812.620,837.295,812.620,0.000,0.000,0
1512340291.871,829.070,817.555,832.360,824.135,0.000,0.000,0
1512340291.875,834.005,802.750,842.230,840.585,0.000,0.000,0
1512340291.880,840.585,804.395,848.810,842.230,0.000,0.000,0
1512340291.884,850.455,822.490,850.455,832.360,0.000,0.000,0
1512340291.889,837.295,812.620,847.165,822.490,0.000,0.000,0
1512340291.893,838.940,802.750,843.875,845.520,0.000,0.000,0
1512340291.898,855.390,807.685,840.585,838.940,0.000,0.000,0
1512340291.902,837.295,804.395,835.650,845.520,0.000,0.000,0
1512340291.907,850.455,799.460,840.585,842.230,0.000,0.000,0
1512340291.911,835.650,806.040,835.650,829.070,0.000,0.000,0
1512340291.916,832.360,796.170,840.585,861.970,0.000,0.000,0
1512340291.920,847.165,792.881,853.745,868.550,0.000,0.000,0
1512340291.925,837.295,824.135,843.875,834.005,0.000,0.000,0
1512340291.930,827.425,825.780,840.585,830.715,0.000,0.000,0
1512340291.934,840.585,819.200,843.875,845.520,0.000,0.000,0
1512340291.939,857.035,806.040,843.875,840.585,0.000,0.000,0
1512340291.943,840.585,794.526,843.875,850.455,0.000,0.000,0
1512340291.948,843.875,809.330,845.520,837.295,0.000,0.000,0
1512340291.952,840.585,810.975,840.585,832.360,0.000,0.000,0
1512340291.957,842.230,806.040,843.875,853.745,0.000,0.000,0
1512340291.961,857.035,807.685,848.810,850.455,0.000,0.000,0
1512340291.966,848.810,806.040,850.455,842.230,0.000,0.000,0
1512340291.970,840.585,822.490,847.165,845.520,0.000,0.000,0
1512340291.975,845.520,815.910,840.585,834.005,0.000,0.000,0
1512340291.979,857.035,812.620,843.875,848.810,0.000,0.000,0
1512340291.984,858.680,822.490,842.230,842.230,0.000,0.000,0
1512340291.988,848.810,820.845,843.875,838.940,0.000,0.000,0
1512340291.993,845.520,809.330,840.585,842.230,0.000,0.000,0
1512340291.997,837.295,814.265,843.875,835.650,0.000,0.000,0
1512340292.002,838.940,796.170,848.810,840.585,0.000,0.000,0
1512340292.007,830.715,809.330,850.455,837.295,0.000,0.000,0
1512340292.011,825.780,819.200,855.390,850.455,0.000,0.000,0
1512340292.016,835.650,809.330,852.100,837.295,0.000,0.000,0
1512340292.020,812.620,832.360,847.165,829.070,0.000,0.000,0
1512340292.025,817.555,824.135,852.100,842.230,0.000,0.000,0
1512340292.029,824.135,829.070,847.165,829.070,0.000,0.000,0
1512340292.034,837.295,819.200,848.810,850.455,0.000,0.000,0
1512340292.038,829.070,814.265,852.100,861.970,0.000,0.000,0
1512340292.043,835.650,814.265,850.455,871.840,0.000,0.000,0
1512340292.047,834.005,807.685,850.455,868.550,0.000,0.000,0
1512340292.052,840.585,822.490,843.875,845.520,0.000,0.000,0
1512340292.056,855.390,807.685,847.165,850.455,0.000,0.000,0
1512340292.061,865.260,806.040,848.810,845.520,0.000,0.000,0
1512340292.065,848.810,807.685,852.100,871.840,0.000,0.000,0
1512340292.070,857.035,806.040,852.100,857.035,0.000,0.000,0
1512340292.074,848.810,820.845,843.875,834.005,0.000,0.000,0
1512340292.079,845.520,814.265,850.455,843.875,0.000,0.000,0
1512340292.084,853.745,825.780,853.745,843.875,0.000,0.000,0
1512340292.088,868.550,812.620,855.390,860.325,0.000,0.000,0
1512340292.093,865.260,809.330,848.810,845.520,0.000,0.000,0
1512340292.097,843.875,796.170,845.520,835.650,0.000,0.000,0
1512340292.102,847.165,789.591,853.745,842.230,0.000,0.000,0
1512340292.106,829.070,827.425,848.810,825.780,0.000,0.000,0
1512340292.111,834.005,817.555,850.455,835.650,0.000,0.000,0
1512340292.115,838.940,820.845,852.100,837.295,0.000,0.000,0
1512340292.120,837.295,827.425,843.875,829.070,0.000,0.000,0
1512340292.124,838.940,819.200,850.455,835.650,0.000,0.000,0
1512340292.129,827.425,820.845,845.520,824.135,0.000,0.000,0
1512340292.133,848.810,812.620,843.875,829.070,0.000,0.000,0
1512340292.138,830.715,814.265,847.165,817.555,0.000,0.000,0
1512340292.142,838.940,814.265,843.875,830.715,0.000,0.000,0
1512340292.147,835.650,822.490,847.165,830.715,0.000,0.000,0
1512340292.151,827.425,827.425,848.810,827.425,0.000,0.000,0
1512340292.156,835.650,812.620,843.875,842.230,0.000,0.000,0
1512340292.161,840.585,827.425,847.165,843.875,0.000,0.000,0
1512340292.165,838.940,832.360,842.230,829.070,0.000,0.000,0
1512340292.170,840.585,837.295,840.585,824.135,0.000,0.000,0
1512340292.174,857.035,824.135,848.810,835.650,0.000,0.000,0
1512340292.179,850.455,827.425,845.520,832.360,0.000,0.000,0
1512340292.183,837.295,820.845,845.520,842.230,0.000,0.000,0
1512340292.188,838.940,820.845,847.165,842.230,0.000,0.000,0
1512340292.192,842.230,817.555,847.165,837.295,0.000,0.000,0
1512340292.197,834.005,822.490,845.520,827.425,0.000,0.000,0
1512340292.201,845.520,832.360,843.875,834.005,0.000,0.000,0
1512340292.206,848.810,827.425,847.165,842.230,0.000,0.000,0
1512340292.210,845.520,829.070,848.810,840.585,0.000,0.000,0
1512340292.215,855.390,827.425,850.455,840.585,0.000,0.000,0
1512340292.219,845.520,814.265,853.745,843.875,0.000,0.000,0
1512340292.224,835.650,842.230,852.100,832.360,0.000,0.000,0
1512340292.228,843.875,843.875,847.165,832.360,0.000,0.000,0
1512340292.233,848.810,837.295,842.230,845.520,0.000,0.000,0
1512340292.238,847.165,820.845,845.520,845.520,0.000,0.000,0
1512340292.242,843.875,815.910,850.455,847.165,0.000,0.000,0
1512340292.247,842.230,824.135,848.810,832.360,0.000,0.000,0
1512340292.251,832.360,830.715,850.455,820.845,0.000,0.000,0
1512340292.256,843.875,830.715,850.455,835.650,0.000,0.000,0
1512340292.260,830.715,812.620,848.810,829.070,0.000,0.000,0
1512340292.265,835.650,825.780,855.390,845.520,0.000,0.000,0
1512340292.269,847.165,840.585,845.520,829.070,0.000,0.000,0
1512340292.274,853.745,837.295,847.165,830.715,0.000,0.000,0
1512340292.278,848.810,837.295,853.745,847.165,0.000,0.000,0
1512340292.283,848.810,810.975,848.810,852.100,0.000,0.000,0
1512340292.287,842.230,817.555,852.100,837.295,0.000,0.000,0
1512340292.292,842.230,843.875,845.520,827.425,0.000,0.000,0
1512340292.296,845.520,838.940,848.810,837.295,0.000,0.000,0
1512340292.301,845.520,852.100,847.165,825.780,0.000,0.000,0
1512340292.305,835.650,825.780,845.520,840.585,0.000,0.000,0
1512340292.310,850.455,829.070,847.165,829.070,0.000,0.000,0
1512340292.315,850.455,834.005,845.520,829.070,0.000,0.000,0
1512340292.319,838.940,840.585,845.520,829.070,0.000,0.000,0
1512340292.324,847.165,832.360,847.165,832.360,0.000,0.000,0
1512340292.328,843.875,838.940,842.230,822.490,0.000,0.000,0
1512340292.333,842.230,817.555,847.165,835.650,0.000,0.000,0
1512340292.337,835.650,822.490,848.810,843.875,0.000,0.000,0
1512340292.342,830.715,834.005,847.165,835.650,0.000,0.000,0
1512340292.346,838.940,829.070,852.100,852.100,0.000,0.000,0
1512340292.351,848.810,830.715,855.390,848.810,0.000,0.000,0
1512340292.355,843.875,824.135,852.100,824.135,0.000,0.000,0
1512340292.360,845.520,835.650,847.165,819.200,0.000,0.000,0
1512340292.364,842.230,829.070,850.455,822.490,0.000,0.000,0
1512340292.369,843.875,843.875,843.875,832.360,0.000,0.000,0
1512340292.373,858.680,822.490,845.520,842.230,0.000,0.000,0
1512340292.378,847.165,825.780,847.165,834.005,0.000,0.000,0
1512340292.382,835.650,829.070,850.455,832.360,0.000,0.000,0
1512340292.387,827.425,832.360,842.230,812.620,0.000,0.000,0
1512340292.392,832.360,824.135,837.295,832.360,0.000,0.000,0
1512340292.396,837.295,827.425,842.230,829.070,0.000,0.000,0
1512340292.401,852.100,829.070,840.585,822.490,0.000,0.000,0
1512340292.405,842.230,830.715,843.875,838.940,0.000,0.000,0
1512340292.410,843.875,824.135,848.810,835.650,0.000,0.000,0
1512340292.414,845.520,830.715,842.230,815.910,0.000,0.000,0
1512340292.419,847.165,830.715,842.230,829.070,0.000,0.000,0
1512340292.423,838.940,819.200,845.520,842.230,0.000,0.000,0
1512340292.428,829.070,812.620,840.585,847.165,0.000,0.000,0
1512340292.432,824.135,807.685,842.230,857.035,0.000,0.000,0
1512340292.437,850.455,817.555,845.520,834.005,0.000,0.000,0
1512340292.441,855.390,847.165,837.295,825.780,0.000,0.000,0
1512340292.446,830.715,840.585,840.585,829.070,0.000,0.000,0
1512340292.450,842.230,824.135,847.165,852.100,0.000,0.000,0
1512340292.455,855.390,815.910,858.680,857.035,0.000,0.000,0
1512340292.459,837.295,830.715,853.745,837.295,0.000,0.000,0
1512340292.464,850.455,827.425,858.680,842.230,0.000,0.000,0
1512340292.469,819.200,829.070,845.520,830.715,0.000,0.000,0
1512340292.473,832.360,815.910,838.940,835.650,0.000,0.000,0
1512340292.478,840.585,812.620,850.455,842.230,0.000,0.000,0
1512340292.482,845.520,806.040,848.810,835.650,0.000,0.000,0
1512340292.487,837.295,806.040,852.100,810.975,0.000,0.000,0
1512340292.491,830.715,801.105,848.810,804.395,0.000,0.000,0
1512340292.496,845.520,819.200,842.230,796.170,0.000,0.000,0
1512340292.500,857.035,812.620,840.585,809.330,0.000,0.000,0
1512340292.505,842.230,809.330,848.810,825.780,0.000,0.000,0
1512340292.509,838.940,825.780,843.875,837.295,0.000,0.000,0
1512340292.514,843.875,835.650,843.875,843.875,0.000,0.000,0
1512340292.518,832.360,843.875,842.230,847.165,0.000,0.000,0
1512340292.523,838.940,837.295,845.520,860.325,0.000,0.000,0
1512340292.527,832.360,838.940,848.810,861.970,0.000,0.000,0
1512340292.532,847.165,822.490,852.100,875.130,0.000,0.000,0
1512340292.536,865.260,834.005,845.520,870.195,0.000,0.000,0
1512340292.541,861.970,834.005,838.940,853.745,0.000,0.000,0
1512340292.546,850.455,801.105,843.875,868.550,0.000,0.000,0
1512340292.550,829.070,820.845,840.585,850.455,0.000,0.000,1
1512340292.555,845.520,809.330,843.875,860.325,0.000,0.000,0
1512340292.559,850.455,804.395,843.875,848.810,0.000,0.000,0
1512340292.564,853.745,817.555,843.875,843.875,0.000,0.000,0
1512340292.568,857.035,815.910,848.810,842.230,0.000,0.000,0
1512340292.573,852.100,820.845,850.455,842.230,0.000,0.000,0
1512340292.577,852.100,838.940,848.810,843.875,0.000,0.000,0
1512340292.582,857.035,829.070,843.875,845.520,0.000,0.000,0
1512340292.586,852.100,825.780,845.520,842.230,0.000,0.000,0
1512340292.591,853.745,838.940,847.165,847.165,0.000,0.000,0
1512340292.595,852.100,812.620,848.810,847.165,0.000,0.000,0
1512340292.600,843.875,834.005,842.230,832.360,0.000,0.000,0
1512340292.604,850.455,830.715,840.585,842.230,0.000,0.000,0
1512340292.609,855.390,815.910,847.165,838.940,0.000,0.000,0
1512340292.613,863.615,824.135,852.100,838.940,0.000,0.000,0
1512340292.618,855.390,840.585,852.100,842.230,0.000,0.000,0
1512340292.623,847.165,830.715,848.810,840.585,0.000,0.000,0
1512340292.627,837.295,837.295,847.165,835.650,0.000,0.000,0
1512340292.632,842.230,822.490,845.520,848.810,0.000,0.000,0
1512340292.636,847.165,824.135,850.455,842.230,0.000,0.000,0
1512340292.641,848.810,834.005,848.810,840.585,0.000,0.000,0
1512340292.645,853.745,832.360,845.520,838.940,0.000,0.000,0
1512340292.650,858.680,820.845,845.520,840.585,0.000,0.000,0
1512340292.654,853.745,820.845,848.810,835.650,0.000,0.000,0
1512340292.659,843.875,840.585,842.230,834.005,0.000,0.000,0
1512340292.663,847.165,837.295,843.875,835.650,0.000,0.000,0
1512340292.668,843.875,834.005,845.520,840.585,0.000,0.000,0
1512340292.672,848.810,827.425,852.100,842.230,0.000,0.000,0
1512340292.677,847.165,835.650,852.100,835.650,0.000,0.000,0
1512340292.681,845.520,838.940,850.455,834.005,0.000,0.000,0
1512340292.686,850.455,837.295,852.100,838.940,0.000,0.000,0
1512340292.690,861.970,817.555,853.745,845.520,0.000,0.000,0
1512340292.695,858.680,835.650,850.455,837.295,0.000,0.000,0
1512340292.700,838.940,837.295,843.875,824.135,0.000,0.000,0
1512340292.704,830.715,829.070,838.940,820.845,0.000,0.000,0
1512340292.709,837.295,843.875,843.875,827.425,0.000,0.000,0
1512340292.713,843.875,837.295,843.875,829.070,0.000,0.000,0
1512340292.718,855.390,830.715,848.810,835.650,0.000,0.000,0
1512340292.722,852.100,850.455,850.455,830.715,0.000,0.000,0
1512340292.727,847.165,824.135,845.520,838.940,0.000,0.000,0
1512340292.731,848.810,815.910,845.520,832.360,0.000,0.000,0
1512340292.736,850.455,817.555,848.810,835.650,0.000,0.000,0
1512340292.740,838.940,843.875,843.875,825.780,0.000,0.000,0
1512340292.745,845.520,838.940,847.165,838.940,0.000,0.000,0
1512340292.749,850.455,832.360,850.455,843.875,0.000,0.000,0
1512340292.754,871.840,824.135,855.390,861.970,0.000,0.000,0
1512340292.758,857.035,817.555,848.810,847.165,0.000,0.000,0
1512340292.763,848.810,825.780,847.165,835.650,0.000,0.000,0
1512340292.767,843.875,835.650,848.810,829.070,0.000,0.000,0
1512340292.772,842.230,819.200,850.455,843.875,0.000,0.000,0
1512340292.777,858.680,824.135,858.680,852.100,0.000,0.000,0
1512340292.781,853.745,837.295,853.745,842.230,0.000,0.000,0
1512340292.786,838.940,830.715,845.520,835.650,0.000,0.000,0
1512340292.790,850.455,814.265,852.100,838.940,0.000,0.000,0
1512340292.795,853.745,820.845,855.390,847.165,0.000,0.000,0
1512340292.799,852.100,827.425,858.680,853.745,0.000,0.000,0
1512340292.804,848.810,838.940,855.390,834.005,0.000,0.000,0
1512340292.808,848.810,848.810,858.680,842.230,0.000,0.000,0
1512340292.813,847.165,814.265,852.100,840.585,0.000,0.000,0
1512340292.817,837.295,824.135,838.940,830.715,0.000,0.000,0
1512340292.822,850.455,822.490,842.230,840.585,0.000,0.000,0
1512340292.826,838.940,812.620,848.810,832.360,0.000,0.000,0
1512340292.831,837.295,827.425,845.520,824.135,0.000,0.000,0
1512340292.835,845.520,842.230,850.455,837.295,0.000,0.000,0
1512340292.840,838.940,837.295,845.520,835.650,0.000,0.000,0
1512340292.844,835.650,847.165,843.875,835.650,0.000,0.000,0
1512340292.849,848.810,825.780,858.680,865.260,0.000,0.000,0
1512340292.854,843.875,806.040,852.100,848.810,0.000,0.000,0
1512340292.858,850.455,817.555,855.390,863.615,0.000,0.000,0
1512340292.863,842.230,843.875,850.455,850.455,0.000,0.000,0
1512340292.867,842.230,819.200,843.875,837.295,0.000,0.000,0
1512340292.872,835.650,822.490,850.455,830.715,0.000,0.000,0
1512340292.876,835.650,827.425,843.875,825.780,0.000,0.000,0
1512340292.881,834.005,812.620,848.810,824.135,0.000,0.000,0
1512340292.885,835.650,857.035,848.810,827.425,0.000,0.000,0
1512340292.890,845.520,835.650,847.165,837.295,0.000,0.000,0
1512340292.894,835.650,815.910,847.165,830.715,0.000,0.000,0
1512340292.899,832.360,834.005,845.520,830.715,0.000,0.000,0
1512340292.903,834.005,829.070,848.810,835.650,0.000,0.000,0
1512340292.908,837.295,830.715,848.810,837.295,0.000,0.000,0
1512340292.912,835.650,832.360,848.810,837.295,0.000,0.000,0
1512340292.917,840.585,830.715,853.745,843.875,0.000,0.000,0
1512340292.921,843.875,835.650,847.165,847.165,0.000,0.000,0
1512340292.926,835.650,835.650,847.165,837.295,0.000,0.000,0
1512340292.931,845.520,819.200,842.230,850.455,0.000,0.000,0
1512340292.935,845.520,810.975,843.875,843.875,0.000,0.000,0
1512340292.940,838.940,827.425,842.230,832.360,0.000,0.000,0
1512340292.944,838.940,829.070,843.875,847.165,0.000,0.000,0
1512340292.949,842.230,829.070,848.810,840.585,0.000,0.000,0
1512340292.953,847.165,825.780,852.100,835.650,0.000,0.000,0
1512340292.958,837.295,842.230,845.520,825.780,0.000,0.000,0
1512340292.962,837.295,837.295,845.520,835.650,0.000,0.000,0
1512340292.967,830.715,838.940,847.165,837.295,0.000,0.000,0
1512340292.971,830.715,834.005,842.230,842.230,0.000,0.000,0
1512340292.976,847.165,820.845,852.100,845.520,0.000,0.000,0
1512340292.980,837.295,837.295,848.810,829.070,0.000,0.000,0
1512340292.985,840.585,838.940,845.520,832.360,0.000,0.000,0
1512340292.989,842.230,820.845,843.875,834.005,0.000,0.000,0
1512340292.994,845.520,814.265,843.875,827.425,0.000,0.000,0
1512340292.998,840.585,830.715,843.875,822.490,0.000,0.000,0
1512340293.003,835.650,835.650,842.230,827.425,0.000,0.000,0
1512340293.008,837.295,824.135,842.230,834.005,0.000,0.000,0
1512340293.012,838.940,827.425,843.875,838.940,0.000,0.000,0
1512340293.017,845.520,810.975,848.810,834.005,0.000,0.000,0
1512340293.021,834.005,829.070,850.455,820.845,0.000,0.000,0
1512340293.026,843.875,827.425,850.455,835.650,0.000,0.000,0
1512340293.030,838.940,835.650,840.585,829.070,0.000,0.000,0
1512340293.035,837.295,832.360,835.650,832.360,0.000,0.000,0
1512340293.039,845.520,827.425,843.875,835.650,0.000,0.000,0
1512340293.044,840.585,840.585,843.875,830.715,0.000,0.000,0
1512340293.048,852.100,807.685,847.165,848.810,0.000,0.000,0
1512340293.053,845.520,814.265,847.165,840.585,0.000,0.000,0
1512340293.057,838.940,819.200,842.230,835.650,0.000,0.000,0
1512340293.062,845.520,814.265,852.100,837.295,0.000,0.000,0
1512340293.066,845.520,824.135,853.745,832.360,0.000,0.000,0
1512340293.071,848.810,824.135,848.810,843.875,0.000,0.000,0
1512340293.075,843.875,825.780,848.810,843.875,0.000,0.000,0
1512340293.080,848.810,820.845,848.810,840.585,0.000,0.000,0
1512340293.085,848.810,832.360,848.810,840.585,0.000,0.000,0
1512340293.089,848.810,810.975,847.165,843.875,0.000,0.000,0
1512340293.094,852.100,819.200,848.810,845.520,0.000,0.000,0
1512340293.098,842.230,815.910,845.520,845.520,0.000,0.000,0
1512340293.103,838.940,820.845,845.520,832.360,0.000,0.000,0
1512340293.107,845.520,819.200,843.875,832.360,0.000,0.000,0
1512340293.112,842.230,814.265,848.810,832.360,0.000,0.000,0
1512340293.116,843.875,840.585,847.165,832.360,0.000,0.000,0
1512340293.121,850.455,820.845,847.165,842.230,0.000,0.000,0
1512340293.125,843.875,825.780,847.165,838.940,0.000,0.000,0
1512340293.130,840.585,829.070,843.875,829.070,0.000,0.000,0
1512340293.134,848.810,830.715,852.100,840.585,0.000,0.000,0
1512340293.139,843.875,820.845,850.455,842.230,0.000,0.000,0
1512340293.143,847.165,830.715,848.810,837.295,0.000,0.000,0
1512340293.148,847.165,814.265,850.455,850.455,0.000,0.000,0
1512340293.152,853.745,815.910,857.035,863.615,0.000,0.000,0
1512340293.157,830.715,843.875,850.455,838.940,0.000,0.000,0
1512340293.162,830.715,794.526,843.875,843.875,0.000,0.000,0
1512340293.166,830.715,794.526,843.875,842.230,0.000,0.000,0
1512340293.171,815.910,814.265,842.230,824.135,0.000,0.000,1
1512340293.175,832.360,843.875,847.165,838.940,0.000,0.000,0
1512340293.180,837.295,843.875,845.520,835.650,0.000,0.000,0
1512340293.184,829.070,829.070,845.520,835.650,0.000,0.000,0
1512340293.189,842.230,815.910,848.810,845.520,0.000,0.000,0
1512340293.193,840.585,812.620,850.455,847.165,0.000,0.000,0
1512340293.198,835.650,832.360,848.810,835.650,0.000,0.000,0
1512340293.202,838.940,825.780,843.875,829.070,0.000,0.000,0
1512340293.207,845.520,812.620,843.875,842.230,0.000,0.000,0
1512340293.211,837.295,825.780,845.520,840.585,0.000,0.000,0
1512340293.216,838.940,832.360,838.940,834.005,0.000,0.000,0
1512340293.220,848.810,827.425,845.520,848.810,0.000,0.000,0
1512340293.225,840.585,834.005,848.810,838.940,0.000,0.000,0
1512340293.229,847.165,819.200,852.100,848.810,0.000,0.000,0
1512340293.234,835.650,815.910,845.520,835.650,0.000,0.000,0
1512340293.239,829.070,825.780,842.230,829.070,0.000,0.000,0
1512340293.243,840.585,817.555,845.520,845.520,0.000,0.000,0
1512340293.248,840.585,825.780,847.165,837.295,0.000,0.000,0
1512340293.252,847.165,824.135,845.520,840.585,0.000,0.000,0
1512340293.257,838.940,825.780,842.230,837.295,0.000,0.000,0
1512340293.261,832.360,834.005,840.585,835.650,0.000,0.000,0
1512340293.266,842.230,809.330,848.810,857.035,0.000,0.000,0
1512340293.270,838.940,819.200,852.100,850.455,0.000,0.000,0
1512340293.275,843.875,817.555,850.455,852.100,0.000,0.000,0
1512340293.279,837.295,829.070,848.810,842.230,0.000,0.000,0
1512340293.284,840.585,843.875,843.875,837.295,0.000,0.000,0
1512340293.288,845.520,812.620,850.455,842.230,0.000,0.000,0
1512340293.293,850.455,815.910,852.100,837.295,0.000,0.000,0
1512340293.297,850.455,830.715,853.745,837.295,0.000,0.000,0
1512340293.302,843.875,820.845,843.875,837.295,0.000,0.000,0
1512340293.306,845.520,825.780,840.585,837.295,0.000,0.000,0
1512340293.311,845.520,822.490,840.585,838.940,0.000,0.000,0
1512340293.316,847.165,809.330,850.455,847.165,0.000,0.000,0
1512340293.320,837.295,834.005,848.810,832.360,0.000,0.000,0
1512340293.325,834.005,824.135,847.165,835.650,0.000,0.000,0
1512340293.329,832.360,824.135,847.165,832.360,0.000,0.000,0
1512340293.334,832.360,827.425,843.875,837.295,0.000,0.000,0
1512340293.338,845.520,815.910,850.455,850.455,0.000,0.000,0
1512340293.343,847.165,820.845,848.810,843.875,0.000,0.000,0
1512340293.347,843.875,822.490,842.230,838.940,0.000,0.000,0
1512340293.352,843.875,820.845,842.230,840.585,0.000,0.000,0
1512340293.356,842.230,835.650,842.230,840.585,0.000,0.000,0
1512340293.361,843.875,835.650,838.940,843.875,0.000,0.000,0
1512340293.365,857.035,822.490,852.100,858.680,0.000,0.000,0
1512340293.370,845.520,827.425,852.100,850.455,0.000,0.000,0
1512340293.374,834.005,820.845,843.875,838.940,0.000,0.000,0
1512340293.379,843.875,801.105,847.165,850.455,0.000,0.000,0
1512340293.383,835.650,812.620,842.230,835.650,0.000,0.000,0
1512340293.388,842.230,825.780,843.875,835.650,0.000,0.000,0
1512340293.393,853.745,812.620,850.455,845.520,0.000,0.000,0
1512340293.397,842.230,832.360,845.520,837.295,0.000,0.000,0
1512340293.402,842.230,824.135,845.520,847.165,0.000,0.000,0
1512340293.406,850.455,815.910,848.810,853.745,0.000,0.000,0
1512340293.411,847.165,814.265,847.165,840.585,0.000,0.000,0
1512340293.415,847.165,804.395,847.165,842.230,0.000,0.000,0
1512340293.420,835.650,822.490,843.875,830.715,0.000,0.000,0
1512340293.424,834.005,830.715,845.520,825.780,0.000,0.000,0
1512340293.429,830.715,830.715,845.520,825.780,0.000,0.000,0
1512340293.433,837.295,829.070,842.230,825.780,0.000,0.000,0
1512340293.438,848.810,814.265,845.520,840.585,0.000,0.000,0
1512340293.442,838.940,829.070,847.165,847.165,0.000,0.000,0
1512340293.447,845.520,819.200,853.745,853.745,0.000,0.000,0
1512340293.451,834.005,815.910,845.520,827.425,0.000,0.000,0
1512340293.456,829.070,815.910,838.940,827.425,0.000,0.000,0
1512340293.460,837.295,812.620,842.230,824.135,0.000,0.000,0
1512340293.465,832.360,842.230,842.230,822.490,0.000,0.000,0
1512340293.470,847.165,809.330,847.165,840.585,0.000,0.000,0
1512340293.474,847.165,815.910,847.165,830.715,0.000,0.000,0
1512340293.479,837.295,834.005,840.585,825.780,0.000,0.000,0
1512340293.483,832.360,822.490,842.230,835.650,0.000,0.000,0
1512340293.488,837.295,822.490,848.810,840.585,0.000,0.000,0
1512340293.492,840.585,822.490,848.810,843.875,0.000,0.000,0
1512340293.497,840.585,820.845,847.165,843.875,0.000,0.000,0
1512340293.501,845.520,824.135,845.520,842.230,0.000,0.000,0
1512340293.506,840.585,812.620,843.875,835.650,0.000,0.000,0
1512340293.510,838.940,820.845,847.165,832.360,0.000,0.000,0
1512340293.515,840.585,827.425,848.810,835.650,0.000,0.000,0
1512340293.519,842.230,835.650,850.455,842.230,0.000,0.000,0
1512340293.524,834.005,834.005,843.875,834.005,0.000,0.000,0
1512340293.528,837.295,814.265,840.585,840.585,0.000,0.000,0
1512340293.533,842.230,809.330,843.875,832.360,0.000,0.000,0
1512340293.537,834.005,835.650,843.875,825.780,0.000,0.000,0
1512340293.542,840.585,812.620,847.165,842.230,0.000,0.000,0
1512340293.547,837.295,829.070,845.520,829.070,0.000,0.000,0
1512340293.551,837.295,832.360,843.875,837.295,0.000,0.000,0
1512340293.556,830.715,825.780,843.875,835.650,0.000,0.000,0
1512340293.560,832.360,838.940,843.875,835.650,0.000,0.000,0
1512340293.565,850.455,814.265,850.455,852.100,0.000,0.000,0
1512340293.569,838.940,815.910,847.165,837.295,0.000,0.000,0
1512340293.574,838.940,827.425,848.810,830.715,0.000,0.000,0
1512340293.578,837.295,810.975,850.455,827.425,0.000,0.000,0
1512340293.583,837.295,819.200,850.455,830.715,0.000,0.000,0
1512340293.587,845.520,832.360,848.810,832.360,0.000,0.000,0
1512340293.592,852.100,825.780,850.455,850.455,0.000,0.000,0
1512340293.596,847.165,827.425,850.455,850.455,0.000,0.000,0
1512340293.601,842.230,827.425,848.810,835.650,0.000,0.000,0
1512340293.605,838.940,825.780,850.455,842.230,0.000,0.000,0
1512340293.610,842.230,820.845,852.100,843.875,0.000,0.000,0
1512340293.614,827.425,840.585,840.585,830.715,0.000,0.000,0
1512340293.619,837.295,815.910,842.230,847.165,0.000,0.000,0
1512340293.624,843.875,812.620,845.520,835.650,0.000,0.000,0
1512340293.628,838.940,835.650,847.165,830.715,0.000,0.000,0
1512340293.633,835.650,829.070,845.520,832.360,0.000,0.000,0
1512340293.637,842.230,815.910,847.165,843.875,0.000,0.000,0
1512340293.642,832.360,820.845,847.165,835.650,0.000,0.000,0
1512340293.646,834.005,834.005,847.165,829.070,0.000,0.000,0
1512340293.651,838.940,827.425,850.455,835.650,0.000,0.000,0
1512340293.655,832.360,830.715,848.810,832.360,0.000,0.000,0
1512340293.660,842.230,824.135,847.165,838.940,0.000,0.000,0
1512340293.664,852.100,794.526,850.455,852.100,0.000,0.000,0
1512340293.669,845.520,825.780,848.810,842.230,0.000,0.000,0
1512340293.673,850.455,825.780,848.810,845.520,0.000,0.000,0
1512340293.678,848.810,824.135,850.455,855.390,0.000,0.000,0
1512340293.682,850.455,819.200,853.745,850.455,0.000,0.000,0
1512340293.687,838.940,827.425,852.100,830.715,0.000,0.000,0
1512340293.691,838.940,835.650,847.165,832.360,0.000,0.000,0
1512340293.696,843.875,827.425,857.035,848.810,0.000,0.000,0
1512340293.701,845.520,830.715,860.325,857.035,0.000,0.000,0
1512340293.705,840.585,802.750,855.390,845.520,0.000,0.000,0
1512340293.710,835.650,806.040,853.745,830.715,0.000,0.000,0
1512340293.714,832.360,829.070,848.810,819.200,0.000,0.000,0
1512340293.719,838.940,817.555,850.455,835.650,0.000,0.000,0
1512340293.723,843.875,817.555,852.100,847.165,0.000,0.000,0
1512340293.728,838.940,819.200,850.455,837.295,0.000,0.000,0
1512340293.732,832.360,827.425,847.165,829.070,0.000,0.000,0
1512340293.737,838.940,820.845,850.455,838.940,0.000,0.000,0
1512340293.741,840.585,830.715,852.100,843.875,0.000,0.000,0
1512340293.746,842.230,814.265,850.455,842.230,0.000,0.000,0
1512340293.750,840.585,801.105,848.810,825.780,0.000,0.000,0
1512340293.755,838.940,824.135,845.520,812.620,0.000,0.000,0
1512340293.759,840.585,829.070,847.165,812.620,0.000,0.000,0
1512340293.764,845.520,815.910,847.165,817.555,0.000,0.000,0
1512340293.768,848.810,824.135,850.455,827.425,0.000,0.000,0
1512340293.773,850.455,829.070,852.100,830.715,0.000,0.000,0
1512340293.778,848.810,815.910,843.875,829.070,0.000,0.000,0
1512340293.782,835.650,825.780,842.230,830.715,0.000,0.000,1
1512340293.787,834.005,817.555,840.585,838.940,0.000,0.000,0
1512340293.791,835.650,814.265,843.875,840.585,0.000,0.000,0
1512340293.796,834.005,832.360,845.520,832.360,0.000,0.000,0
1512340293.800,847.165,817.555,845.520,842.230,0.000,0.000,0
1512340293.805,847.165,799.460,852.100,853.745,0.000,0.000,0
1512340293.809,843.875,830.715,848.810,850.455,0.000,0.000,0
1512340293.814,848.810,809.330,850.455,853.745,0.000,0.000,0
1512340293.818,838.940,829.070,848.810,838.940,0.000,0.000,0
1512340293.823,837.295,832.360,842.230,838.940,0.000,0.000,0
1512340293.827,837.295,812.620,847.165,845.520,0.000,0.000,0
1512340293.832,830.715,825.780,847.165,843.875,0.000,0.000,0
1512340293.836,843.875,815.910,847.165,847.165,0.000,0.000,0
1512340293.841,843.875,814.265,848.810,843.875,0.000,0.000,0
1512340293.846,834.005,814.265,845.520,837.295,0.000,0.000,0
1512340293.850,835.650,825.780,847.165,840.585,0.000,0.000,0
1512340293.855,842.230,824.135,852.100,845.520,0.000,0.000,0
1512340293.859,837.295,822.490,848.810,837.295,0.000,0.000,0
1512340293.864,830.715,825.780,847.165,834.005,0.000,0.000,0
1512340293.868,842.230,817.555,843.875,840.585,0.000,0.000,0
1512340293.873,837.295,832.360,838.940,834.005,0.000,0.000,0
1512340293.877,847.165,822.490,842.230,853.745,0.000,0.000,0
1512340293.882,853.745,806.040,848.810,858.680,0.000,0.000,0
1512340293.886,837.295,824.135,845.520,837.295,0.000,0.000,0
1512340293.891,843.875,814.265,845.520,847.165,0.000,0.000,0
1512340293.895,848.810,817.555,850.455,847.165,0.000,0.000,0
1512340293.900,845.520,835.650,845.520,832.360,0.000,0.000,0
1512340293.904,842.230,824.135,845.520,835.650,0.000,0.000,0
1512340293.909,847.165,814.265,847.165,838.940,0.000,0.000,0
1512340293.913,838.940,835.650,842.230,829.070,0.000,0.000,0
1512340293.918,848.810,825.780,847.165,843.875,0.000,0.000,0
1512340293.923,842.230,819.200,847.165,840.585,0.000,0.000,0
1512340293.927,845.520,817.555,847.165,837.295,0.000,0.000,0
1512340293.932,840.585,825.780,845.520,835.650,0.000,0.000,0
1512340293.936,840.585,819.200,847.165,847.165,0.000,0.000,0
1512340293.941,848.810,830.715,850.455,843.875,0.000,0.000,0
1512340293.945,840.585,837.295,845.520,837.295,0.000,0.000,0
1512340293.950,850.455,820.845,845.520,842.230,0.000,0.000,0
1512340293.954,852.100,822.490,847.165,837.295,0.000,0.000,0
1512340293.959,852.100,824.135,848.810,848.810,0.000,0.000,0
1512340293.963,850.455,804.395,852.100,850.455,0.000,0.000,0
1512340293.968,837.295,820.845,848.810,832.360,0.000,0.000,0
1512340293.972,827.425,840.585,843.875,830.715,0.000,0.000,0
1512340293.977,838.940,819.200,845.520,838.940,0.000,0.000,0
1512340293.981,848.810,810.975,850.455,855.390,0.000,0.000,0
1512340293.986,845.520,812.620,848.810,853.745,0.000,0.000,0
1512340293.990,845.520,822.490,848.810,835.650,0.000,0.000,0
1512340293.995,843.875,838.940,848.810,832.360,0.000,0.000,0
1512340294.000,847.165,825.780,847.165,834.005,0.000,0.000,0
1512340294.004,852.100,819.200,852.100,845.520,0.000,0.000,0
1512340294.009,853.745,825.780,855.390,847.165,0.000,0.000,0
1512340294.013,838.940,832.360,850.455,835.650,0.000,0.000,0
1512340294.018,837.295,825.780,847.165,837.295,0.000,0.000,0
1512340294.022,835.650,814.265,848.810,835.650,0.000,0.000,0
1512340294.027,838.940,819.200,847.165,832.360,0.000,0.000,0
1512340294.031,835.650,824.135,845.520,837.295,0.000,0.000,0
1512340294.036,830.715,819.200,847.165,838.940,0.000,0.000,0
1512340294.040,840.585,827.425,847.165,838.940,0.000,0.000,0
1512340294.045,847.165,809.330,852.100,852.100,0.000,0.000,0
1512340294.049,843.875,827.425,852.100,832.360,0.000,0.000,0
1512340294.054,843.875,842.230,845.520,830.715,0.000,0.000,0
1512340294.058,842.230,827.425,847.165,834.005,0.000,0.000,0
1512340294.063,832.360,837.295,847.165,820.845,0.000,0.000,0
1512340294.067,843.875,827.425,847.165,835.650,0.000,0.000,0
1512340294.072,837.295,837.295,847.165,835.650,0.000,0.000,0
1512340294.077,832.360,829.070,843.875,840.585,0.000,0.000,0
1512340294.081,847.165,810.975,848.810,848.810,0.000,0.000,0
1512340294.086,837.295,824.135,853.745,837.295,0.000,0.000,0
1512340294.090,838.940,822.490,852.100,834.005,0.000,0.000,0
1512340294.095,829.070,835.650,845.520,822.490,0.000,0.000,0
1512340294.099,830.715,838.940,847.165,830.715,0.000,0.000,0
1512340294.104,832.360,814.265,847.165,829.070,0.000,0.000,0
1512340294.108,829.070,809.330,845.520,835.650,0.000,0.000,0
1512340294.113,834.005,810.975,853.745,842.230,0.000,0.000,0
1512340294.117,832.360,825.780,848.810,824.135,0.000,0.000,0
1512340294.122,830.715,820.845,842.230,822.490,0.000,0.000,0
1512340294.126,837.295,824.135,845.520,822.490,0.000,0.000,0
1512340294.131,837.295,837.295,845.520,830.715,0.000,0.000,0
1512340294.135,847.165,819.200,847.165,845.520,0.000,0.000,0
1512340294.140,843.875,829.070,848.810,834.005,0.000,0.000,0
1512340294.144,838.940,835.650,845.520,829.070,0.000,0.000,0
1512340294.149,845.520,825.780,847.165,838.940,0.000,0.000,0
1512340294.154,840.585,827.425,848.810,847.165,0.000,0.000,0
1512340294.158,855.390,820.845,855.390,853.745,0.000,0.000,0
1512340294.163,842.230,819.200,845.520,832.360,0.000,0.000,0
1512340294.167,838.940,820.845,843.875,832.360,0.000,0.000,0
1512340294.172,840.585,832.360,845.520,834.005,0.000,0.000,0
1512340294.176,840.585,830.715,842.230,845.520,0.000,0.000,0
1512340294.181,847.165,814.265,852.100,853.745,0.000,0.000,0
1512340294.185,845.520,825.780,852.100,840.585,0.000,0.000,0
1512340294.190,838.940,819.200,852.100,838.940,0.000,0.000,0
1512340294.194,840.585,814.265,850.455,838.940,0.000,0.000,0
1512340294.199,840.585,815.910,850.455,832.360,0.000,0.000,0
1512340294.203,825.780,840.585,847.165,825.780,0.000,0.000,0
1512340294.208,832.360,829.070,845.520,830.715,0.000,0.000,0
1512340294.212,840.585,814.265,850.455,845.520,0.000,0.000,0
1512340294.217,845.520,809.330,855.390,850.455,0.000,0.000,0
1512340294.221,848.810,825.780,855.390,842.230,0.000,0.000,0
1512340294.226,845.520,834.005,853.745,840.585,0.000,0.000,0
1512340294.231,830.715,837.295,845.520,827.425,0.000,0.000,0
1512340294.235,843.875,834.005,843.875,840.585,0.000,0.000,0
1512340294.240,840.585,804.395,845.520,838.940,0.000,0.000,0
1512340294.244,834.005,835.650,845.520,817.555,0.000,0.000,0
1512340294.249,843.875,842.230,848.810,829.070,0.000,0.000,0
1512340294.253,835.650,824.135,847.165,837.295,0.000,0.000,0
1512340294.258,835.650,819.200,847.165,838.940,0.000,0.000,0
1512340294.262,848.810,810.975,853.745,845.520,0.000,0.000,0
1512340294.267,835.650,819.200,852.100,832.360,0.000,0.000,0
1512340294.271,845.520,824.135,848.810,837.295,0.000,0.000,0
1512340294.276,852.100,824.135,847.165,838.940,0.000,0.000,0
1512340294.280,842.230,838.940,840.585,827.425,0.000,0.000,0
1512340294.285,848.810,817.555,845.520,840.585,0.000,0.000,0
1512340294.289,838.940,835.650,845.520,838.940,0.000,0.000,0
1512340294.294,837.295,814.265,838.940,842.230,0.000,0.000,0
1512340294.298,835.650,796.170,840.585,838.940,0.000,0.000,0
1512340294.303,830.715,824.135,843.875,830.715,0.000,0.000,0
1512340294.308,847.165,815.910,850.455,835.650,0.000,0.000,0
1512340294.312,838.940,825.780,847.165,824.135,0.000,0.000,0
1512340294.317,845.520,817.555,847.165,840.585,0.000,0.000,0
1512340294.321,838.940,812.620,847.165,840.585,0.000,0.000,0
1512340294.326,837.295,807.685,843.875,843.875,0.000,0.000,0
1512340294.330,838.940,807.685,850.455,835.650,0.000,0.000,0
1512340294.335,837.295,824.135,843.875,822.490,0.000,0.000,0
1512340294.339,837.295,820.845,843.875,830.715,0.000,0.000,0
1512340294.344,838.940,835.650,852.100,829.070,0.000,0.000,0
1512340294.348,843.875,832.360,850.455,842.230,0.000,0.000,0
1512340294.353,843.875,817.555,847.165,835.650,0.000,0.000,0
1512340294.357,845.520,824.135,850.455,834.005,0.000,0.000,0
1512340294.362,840.585,837.295,847.165,834.005,0.000,0.000,0
1512340294.366,848.810,820.845,848.810,843.875,0.000,0.000,0
1512340294.371,843.875,809.330,850.455,845.520,0.000,0.000,0
1512340294.375,832.360,817.555,848.810,829.070,0.000,0.000,1
1512340294.380,834.005,820.845,847.165,834.005,0.000,0.000,0
1512340294.385,840.585,824.135,852.100,837.295,0.000,0.000,0
1512340294.389,829.070,830.715,843.875,830.715,0.000,0.000,0
1512340294.394,843.875,815.910,845.520,853.745,0.000,0.000,0
1512340294.398,848.810,825.780,850.455,843.875,0.000,0.000,0
1512340294.403,838.940,827.425,843.875,837.295,0.000,0.000,0
1512340294.407,848.810,819.200,852.100,853.745,0.000,0.000,0
1512340294.412,847.165,814.265,850.455,848.810,0.000,0.000,0
1512340294.416,832.360,815.910,843.875,838.940,0.000,0.000,0
1512340294.421,837.295,815.910,843.875,837.295,0.000,0.000,0
1512340294.425,838.940,815.910,845.520,817.555,0.000,0.000,0
1512340294.430,827.425,819.200,843.875,822.490,0.000,0.000,0
1512340294.434,842.230,794.526,845.520,834.005,0.000,0.000,0
1512340294.439,843.875,820.845,850.455,832.360,0.000,0.000,0
1512340294.443,837.295,817.555,847.165,830.715,0.000,0.000,0
1512340294.448,840.585,832.360,847.165,834.005,0.000,0.000,0
1512340294.452,837.295,829.070,848.810,838.940,0.000,0.000,0
1512340294.457,832.360,815.910,843.875,840.585,0.000,0.000,0
1512340294.462,832.360,819.200,845.520,837.295,0.000,0.000,0
1512340294.466,837.295,819.200,848.810,842.230,0.000,0.000,0
1512340294.471,838.940,822.490,847.165,834.005,0.000,0.000,0
1512340294.475,838.940,804.395,842.230,840.585,0.000,0.000,0
1512340294.480,840.585,804.395,847.165,838.940,0.000,0.000,0
1512340294.484,822.490,825.780,840.585,814.265,0.000,0.000,0
1512340294.489,822.490,827.425,838.940,824.135,0.000,0.000,0
1512340294.493,820.845,819.200,838.940,832.360,0.000,0.000,0
1512340294.498,829.070,801.105,843.875,840.585,0.000,0.000,0
1512340294.502,837.295,804.395,850.455,842.230,0.000,0.000,0
1512340294.507,834.005,817.555,852.100,832.360,0.000,0.000,0
1512340294.511,827.425,825.780,843.875,829.070,0.000,0.000,0
1512340294.516,834.005,825.780,840.585,837.295,0.000,0.000,0
1512340294.520,837.295,815.910,845.520,837.295,0.000,0.000,0
1512340294.525,837.295,815.910,847.165,834.005,0.000,0.000,0
1512340294.529,837.295,830.715,850.455,827.425,0.000,0.000,0
1512340294.534,842.230,820.845,853.745,840.585,0.000,0.000,0
1512340294.539,840.585,817.555,850.455,845.520,0.000,0.000,0
1512340294.543,847.165,807.685,850.455,848.810,0.000,0.000,0
1512340294.548,850.455,807.685,852.100,835.650,0.000,0.000,0
1512340294.552,837.295,817.555,842.230,820.845,0.000,0.000,0
1512340294.557,840.585,822.490,845.520,835.650,0.000,0.000,0
1512340294.561,835.650,832.360,845.520,830.715,0.000,0.000,0
1512340294.566,842.230,832.360,843.875,837.295,0.000,0.000,0
1512340294.570,847.165,822.490,848.810,843.875,0.000,0.000,0
1512340294.575,857.035,815.910,848.810,845.520,0.000,0.000,0
1512340294.579,855.390,819.200,850.455,845.520,0.000,0.000,0
1512340294.584,847.165,815.910,852.100,837.295,0.000,0.000,0
1512340294.588,847.165,829.070,848.810,830.715,0.000,0.000,0
1512340294.593,850.455,832.360,850.455,840.585,0.000,0.000,0
1512340294.597,845.520,829.070,842.230,840.585,0.000,0.000,0
1512340294.602,837.295,820.845,837.295,845.520,0.000,0.000,0
1512340294.606,835.650,815.910,840.585,842.230,0.000,0.000,0
1512340294.611,829.070,830.715,838.940,835.650,0.000,0.000,0
1512340294.616,842.230,819.200,845.520,842.230,0.000,0.000,0
1512340294.620,845.520,827.425,848.810,843.875,0.000,0.000,0
1512340294.625,847.165,824.135,848.810,847.165,0.000,0.000,0
1512340294.629,848.810,814.265,852.100,843.875,0.000,0.000,0
1512340294.634,840.585,832.360,852.100,842.230,0.000,0.000,0
1512340294.638,845.520,819.200,848.810,843.875,0.000,0.000,0
1512340294.643,837.295,830.715,845.520,830.715,0.000,0.000,0
1512340294.647,835.650,819.200,845.520,840.585,0.000,0.000,0
1512340294.652,842.230,802.750,850.455,848.810,0.000,0.000,0
1512340294.656,832.360,815.910,843.875,838.940,0.000,0.000,0
1512340294.661,822.490,840.585,842.230,834.005,0.000,0.000,0
1512340294.665,838.940,825.780,843.875,837.295,0.000,0.000,0
1512340294.670,843.875,832.360,840.585,825.780,0.000,0.000,0
1512340294.674,843.875,820.845,845.520,832.360,0.000,0.000,0
1512340294.679,834.005,824.135,842.230,827.425,0.000,0.000,0
1512340294.683,834.005,825.780,845.520,838.940,0.000,0.000,0
1512340294.688,822.490,834.005,843.875,832.360,0.000,0.000,0
1512340294.693,837.295,809.330,848.810,847.165,0.000,0.000,0
1512340294.697,842.230,807.685,848.810,835.650,0.000,0.000,0
1512340294.702,825.780,848.810,842.230,817.555,0.000,0.000,0
1512340294.706,837.295,825.780,843.875,835.650,0.000,0.000,0
1512340294.711,843.875,822.490,847.165,845.520,0.000,0.000,0
1512340294.715,848.810,809.330,853.745,858.680,0.000,0.000,0
1512340294.720,837.295,814.265,850.455,842.230,0.000,0.000,0
1512340294.724,835.650,825.780,847.165,842.230,0.000,0.000,0
1512340294.729,834.005,825.780,843.875,837.295,0.000,0.000,0
1512340294.733,832.360,834.005,840.585,819.200,0.000,0.000,0
1512340294.738,834.005,825.780,845.520,832.360,0.000,0.000,0
1512340294.742,837.295,835.650,848.810,822.490,0.000,0.000,0
1512340294.747,835.650,840.585,845.520,829.070,0.000,0.000,0
1512340294.751,832.360,815.910,847.165,840.585,0.000,0.000,0
1512340294.756,840.585,817.555,847.165,834.005,0.000,0.000,0
1512340294.760,830.715,832.360,843.875,827.425,0.000,0.000,0
1512340294.765,829.070,834.005,845.520,834.005,0.000,0.000,0
1512340294.770,842.230,830.715,845.520,838.940,0.000,0.000,0
1512340294.774,843.875,819.200,848.810,842.230,0.000,0.000,0
1512340294.779,848.810,810.975,853.745,845.520,0.000,0.000,0
1512340294.783,845.520,832.360,853.745,834.005,0.000,0.000,0
1512340294.788,848.810,834.005,845.520,830.715,0.000,0.000,0
1512340294.792,843.875,834.005,845.520,838.940,0.000,0.000,0
1512340294.797,842.230,815.910,847.165,843.875,0.000,0.000,0
1512340294.801,837.295,822.490,845.520,835.650,0.000,0.000,0
1512340294.806,834.005,819.200,847.165,827.425,0.000,0.000,0
1512340294.810,835.650,837.295,845.520,819.200,0.000,0.000,0
1512340294.815,830.715,827.425,843.875,830.715,0.000,0.000,0
1512340294.819,842.230,819.200,848.810,835.650,0.000,0.000,0
1512340294.824,840.585,825.780,850.455,825.780,0.000,0.000,0
1512340294.828,834.005,827.425,848.810,822.490,0.000,0.000,0
1512340294.833,825.780,819.200,853.745,824.135,0.000,0.000,0
1512340294.837,814.265,820.845,853.745,822.490,0.000,0.000,0
1512340294.842,812.620,812.620,855.390,817.555,0.000,0.000,0
1512340294.847,806.040,820.845,858.680,791.236,0.000,0.000,0
1512340294.851,787.946,834.005,855.390,773.141,0.000,0.000,0
1512340294.856,774.786,812.620,855.390,771.496,0.000,0.000,0
1512340294.860,745.176,820.845,852.100,748.466,0.000,0.000,0
1512340294.865,745.176,815.910,850.455,750.111,0.000,0.000,0
1512340294.869,740.241,815.910,855.390,736.951,0.000,0.000,0
1512340294.874,725.436,822.490,857.035,720.501,0.000,0.000,0
1512340294.878,720.501,827.425,855.390,722.146,0.000,0.000,0
1512340294.883,718.856,812.620,855.390,712.276,0.000,0.000,0
1512340294.887,717.211,806.040,855.390,708.987,0.000,0.000,0
1512340294.892,713.921,815.910,850.455,707.342,0.000,0.000,0
1512340294.896,710.632,812.620,853.745,708.987,0.000,0.000,0
1512340294.901,708.987,819.200,860.325,710.632,0.000,0.000,0
1512340294.905,712.276,822.490,857.035,717.211,0.000,0.000,0
1512340294.910,723.791,802.750,852.100,718.856,0.000,0.000,0
1512340294.914,732.016,820.845,845.520,710.632,0.000,0.000,0
1512340294.919,730.371,825.780,838.940,723.791,0.000,0.000,0
1512340294.924,746.821,819.200,845.520,740.241,0.000,0.000,0
1512340294.928,748.466,827.425,843.875,743.531,0.000,0.000,0
1512340294.933,771.496,820.845,842.230,768.206,0.000,0.000,0
1512340294.937,783.011,817.555,842.230,779.721,0.000,0.000,0
1512340294.942,783.011,832.360,840.585,778.076,0.000,0.000,0
1512340294.946,791.236,827.425,842.230,797.815,0.000,0.000,0
1512340294.951,806.040,825.780,842.230,807.685,0.000,0.000,0
1512340294.955,812.620,824.135,835.650,809.330,0.000,0.000,0
1512340294.960,822.490,827.425,835.650,814.265,0.000,0.000,0
1512340294.964,834.005,830.715,837.295,819.200,0.000,0.000,0
1512340294.969,834.005,824.135,840.585,825.780,0.000,0.000,0
1512340294.973,843.875,820.845,843.875,835.650,0.000,0.000,0
1512340294.978,850.455,822.490,845.520,848.810,0.000,0.000,0
1512340294.982,848.810,815.910,842.230,858.680,0.000,0.000,0
1512340294.987,848.810,830.715,840.585,852.100,0.000,0.000,0
1512340294.991,861.970,822.490,843.875,865.260,0.000,0.000,0
1512340294.996,870.195,814.265,845.520,861.970,0.000,0.000,0
1512340295.001,863.615,842.230,842.230,852.100,0.000,0.000,1
1512340295.005,868.550,835.650,838.940,863.615,0.000,0.000,0
1512340295.010,881.709,829.070,840.585,875.130,0.000,0.000,0
1512340295.014,889.934,814.265,848.810,880.064,0.000,0.000,0
1512340295.019,884.999,812.620,852.100,878.419,0.000,0.000,0
1512340295.023,881.709,819.200,852.100,876.775,0.000,0.000,0
1512340295.028,868.550,820.845,845.520,865.260,0.000,0.000,0
1512340295.032,873.485,822.490,845.520,871.840,0.000,0.000,0
1512340295.037,888.289,815.910,848.810,878.419,0.000,0.000,0
1512340295.041,894.869,812.620,848.810,863.615,0.000,0.000,0
1512340295.046,894.869,810.975,847.165,857.035,0.000,0.000,0
1512340295.050,896.514,815.910,845.520,852.100,0.000,0.000,0
1512340295.055,896.514,830.715,845.520,847.165,0.000,0.000,0
1512340295.059,903.094,825.780,848.810,868.550,0.000,0.000,0
1512340295.064,904.739,840.585,852.100,873.485,0.000,0.000,0
1512340295.068,903.094,845.520,850.455,884.999,0.000,0.000,0
1512340295.073,894.869,827.425,845.520,898.159,0.000,0.000,0
1512340295.078,880.064,840.585,838.940,896.514,0.000,0.000,0
1512340295.082,891.579,830.715,842.230,904.739,0.000,0.000,0
1512340295.087,893.224,827.425,845.520,901.449,0.000,0.000,0
1512340295.091,886.644,840.585,847.165,896.514,0.000,0.000,0
1512340295.096,883.354,829.070,842.230,903.094,0.000,0.000,0
1512340295.100,884.999,822.490,842.230,909.674,0.000,0.000,0
1512340295.105,880.064,842.230,843.875,901.449,0.000,0.000,0
1512340295.109,896.514,815.910,847.165,911.319,0.000,0.000,0
1512340295.114,889.934,822.490,848.810,899.804,0.000,0.000,0
1512340295.118,891.579,827.425,845.520,896.514,0.000,0.000,0
1512340295.123,903.094,814.265,848.810,906.384,0.000,0.000,0
1512340295.127,891.579,843.875,848.810,894.869,0.000,0.000,0
1512340295.132,901.449,820.845,845.520,899.804,0.000,0.000,0
1512340295.136,889.934,817.555,848.810,899.804,0.000,0.000,0
1512340295.141,891.579,814.265,845.520,898.159,0.000,0.000,0
1512340295.145,888.289,804.395,850.455,893.224,0.000,0.000,0
1512340295.150,883.354,829.070,852.100,886.644,0.000,0.000,0
1512340295.155,893.224,825.780,850.455,889.934,0.000,0.000,0
1512340295.159,883.354,845.520,848.810,880.064,0.000,0.000,0
1512340295.164,886.644,835.650,845.520,880.064,0.000,0.000,0
1512340295.168,893.224,820.845,848.810,880.064,0.000,0.000,0
1512340295.173,876.775,817.555,845.520,870.195,0.000,0.000,0
1512340295.177,881.709,829.070,843.875,873.485,0.000,0.000,0
1512340295.182,880.064,819.200,845.520,876.775,0.000,0.000,0
1512340295.186,880.064,817.555,843.875,876.775,0.000,0.000,0
1512340295.191,884.999,822.490,847.165,880.064,0.000,0.000,0
1512340295.195,888.289,822.490,853.745,881.709,0.000,0.000,0
1512340295.200,886.644,809.330,847.165,876.775,0.000,0.000,0
1512340295.204,865.260,817.555,842.230,873.485,0.000,0.000,0
1512340295.209,870.195,806.040,847.165,871.840,0.000,0.000,0
1512340295.213,858.680,829.070,847.165,857.035,0.000,0.000,0
1512340295.218,853.745,843.875,848.810,861.970,0.000,0.000,0
1512340295.222,861.970,824.135,848.810,865.260,0.000,0.000,0
1512340295.227,863.615,806.040,847.165,871.840,0.000,0.000,0
1512340295.232,863.615,809.330,850.455,871.840,0.000,0.000,0
1512340295.236,860.325,817.555,847.165,857.035,0.000,0.000,0
1512340295.241,858.680,812.620,850.455,858.680,0.000,0.000,0
1512340295.245,850.455,832.360,845.520,855.390,0.000,0.000,0
1512340295.250,861.970,814.265,845.520,863.615,0.000,0.000,0
1512340295.254,858.680,822.490,850.455,860.325,0.000,0.000,0
1512340295.259,861.970,838.940,850.455,861.970,0.000,0.000,0
1512340295.263,863.615,817.555,848.810,857.035,0.000,0.000,0
1512340295.268,860.325,806.040,842.230,852.100,0.000,0.000,0
1512340295.272,868.550,809.330,845.520,863.615,0.000,0.000,0
1512340295.277,865.260,799.460,845.520,857.035,0.000,0.000,0
1512340295.281,852.100,820.845,845.520,840.585,0.000,0.000,0
1512340295.286,853.745,822.490,848.810,838.940,0.000,0.000,0
1512340295.290,850.455,825.780,847.165,834.005,0.000,0.000,0
1512340295.295,855.390,824.135,847.165,840.585,0.000,0.000,0
1512340295.299,855.390,832.360,847.165,837.295,0.000,0.000,0
1512340295.304,858.680,832.360,848.810,843.875,0.000,0.000,0
1512340295.309,852.100,827.425,845.520,838.940,0.000,0.000,0
1512340295.313,847.165,822.490,842.230,850.455,0.000,0.000,0
1512340295.318,845.520,820.845,842.230,852.100,0.000,0.000,0
1512340295.322,842.230,834.005,843.875,852.100,0.000,0.000,0
1512340295.327,855.390,819.200,850.455,863.615,0.000,0.000,0
1512340295.331,843.875,824.135,845.520,850.455,0.000,0.000,0
1512340295.336,845.520,820.845,845.520,853.745,0.000,0.000,0
1512340295.340,838.940,817.555,843.875,840.585,0.000,0.000,0
1512340295.345,834.005,832.360,840.585,843.875,0.000,0.000,0
1512340295.349,847.165,825.780,845.520,850.455,0.000,0.000,0
1512340295.354,850.455,817.555,845.520,853.745,0.000,0.000,0
1512340295.358,848.810,809.330,848.810,857.035,0.000,0.000,0
1512340295.363,847.165,814.265,848.810,843.875,0.000,0.000,0
1512340295.367,838.940,819.200,847.165,842.230,0.000,0.000,0
1512340295.372,835.650,822.490,842.230,834.005,0.000,0.000,0
1512340295.376,843.875,837.295,842.230,834.005,0.000,0.000,0
1512340295.381,847.165,824.135,843.875,850.455,0.000,0.000,0
1512340295.386,848.810,822.490,845.520,850.455,0.000,0.000,0
1512340295.390,847.165,834.005,842.230,845.520,0.000,0.000,0
1512340295.395,848.810,827.425,840.585,842.230,0.000,0.000,0
1512340295.399,857.035,810.975,850.455,848.810,0.000,0.000,0
1512340295.404,853.745,817.555,853.745,847.165,0.000,0.000,0
1512340295.408,840.585,817.555,848.810,835.650,0.000,0.000,0
1512340295.413,835.650,830.715,845.520,840.585,0.000,0.000,0
1512340295.417,842.230,834.005,843.875,842.230,0.000,0.000,0
1512340295.422,840.585,820.845,847.165,848.810,0.000,0.000,0
1512340295.426,843.875,806.040,850.455,852.100,0.000,0.000,0
1512340295.431,834.005,830.715,847.165,840.585,0.000,0.000,0
1512340295.435,838.940,837.295,843.875,842.230,0.000,0.000,0
1512340295.440,840.585,824.135,845.520,845.520,0.000,0.000,0
1512340295.444,842.230,807.685,847.165,860.325,0.000,0.000,0
1512340295.449,848.810,797.815,850.455,866.905,0.000,0.000,0
1512340295.453,845.520,825.780,845.520,850.455,0.000,0.000,0
1512340295.458,850.455,829.070,848.810,843.875,0.000,0.000,0
1512340295.463,840.585,837.295,847.165,842.230,0.000,0.000,0
1512340295.467,838.940,822.490,847.165,850.455,0.000,0.000,0
1512340295.472,840.585,807.685,845.520,845.520,0.000,0.000,0
1512340295.476,840.585,838.940,842.230,830.715,0.000,0.000,0
1512340295.481,847.165,837.295,845.520,842.230,0.000,0.000,0
1512340295.485,845.520,830.715,845.520,838.940,0.000,0.000,0
1512340295.490,845.520,830.715,845.520,847.165,0.000,0.000,0
1512340295.494,840.585,832.360,847.165,845.520,0.000,0.000,0
1512340295.499,842.230,817.555,843.875,835.650,0.000,0.000,0
1512340295.503,840.585,820.845,843.875,842.230,0.000,0.000,0
1512340295.508,843.875,812.620,848.810,847.165,0.000,0.000,0
1512340295.512,840.585,822.490,847.165,834.005,0.000,0.000,0
1512340295.517,835.650,847.165,842.230,829.070,0.000,0.000,0
1512340295.521,840.585,829.070,842.230,835.650,0.000,0.000,0
1512340295.526,845.520,819.200,847.165,850.455,0.000,0.000,0
1512340295.530,845.520,815.910,847.165,845.520,0.000,0.000,0
1512340295.535,847.165,820.845,848.810,838.940,0.000,0.000,0
1512340295.540,840.585,825.780,845.520,827.425,0.000,0.000,0
1512340295.544,842.230,822.490,843.875,834.005,0.000,0.000,0
1512340295.549,843.875,820.845,845.520,838.940,0.000,0.000,0
1512340295.553,837.295,825.780,843.875,838.940,0.000,0.000,0
1512340295.558,835.650,838.940,840.585,835.650,0.000,0.000,0
1512340295.562,845.520,825.780,843.875,845.520,0.000,0.000,0
1512340295.567,842.230,825.780,847.165,834.005,0.000,0.000,0
1512340295.571,848.810,814.265,853.745,847.165,0.000,0.000,0
1512340295.576,853.745,799.460,850.455,840.585,0.000,0.000,0
1512340295.580,835.650,817.555,840.585,820.845,0.000,0.000,0
1512340295.585,840.585,819.200,842.230,829.070,0.000,0.000,1
1512340295.589,845.520,820.845,843.875,830.715,0.000,0.000,0
1512340295.594,845.520,832.360,845.520,829.070,0.000,0.000,0
1512340295.598,843.875,822.490,845.520,824.135,0.000,0.000,0
1512340295.603,837.295,838.940,843.875,814.265,0.000,0.000,0
1512340295.607,827.425,838.940,845.520,819.200,0.000,0.000,0
1512340295.612,832.360,824.135,843.875,830.715,0.000,0.000,0
1512340295.617,834.005,824.135,842.230,837.295,0.000,0.000,0
1512340295.621,835.650,822.490,843.875,842.230,0.000,0.000,0
1512340295.626,845.520,824.135,847.165,845.520,0.000,0.000,0
1512340295.630,840.585,832.360,845.520,835.650,0.000,0.000,0
1512340295.635,852.100,822.490,848.810,850.455,0.000,0.000,0
1512340295.639,860.325,827.425,850.455,855.390,0.000,0.000,0
1512340295.644,847.165,817.555,843.875,840.585,0.000,0.000,0
1512340295.648,840.585,830.715,843.875,835.650,0.000,0.000,0
1512340295.653,838.940,815.910,843.875,835.650,0.000,0.000,0
1512340295.657,827.425,825.780,842.230,824.135,0.000,0.000,0
1512340295.662,837.295,810.975,845.520,838.940,0.000,0.000,0
1512340295.666,842.230,812.620,848.810,838.940,0.000,0.000,0
1512340295.671,843.875,829.070,848.810,835.650,0.000,0.000,0
1512340295.675,842.230,838.940,847.165,832.360,0.000,0.000,0
1512340295.680,850.455,835.650,850.455,847.165,0.000,0.000,0
1512340295.684,847.165,825.780,847.165,845.520,0.000,0.000,0
1512340295.689,842.230,815.910,845.520,843.875,0.000,0.000,0
1512340295.694,842.230,815.910,847.165,842.230,0.000,0.000,0
1512340295.698,843.875,819.200,848.810,838.940,0.000,0.000,0
1512340295.703,850.455,812.620,848.810,838.940,0.000,0.000,0
1512340295.707,845.520,815.910,847.165,835.650,0.000,0.000,0
1512340295.712,848.810,820.845,852.100,852.100,0.000,0.000,0
1512340295.716,845.520,829.070,850.455,843.875,0.000,0.000,0
1512340295.721,837.295,827.425,847.165,843.875,0.000,0.000,0
1512340295.725,843.875,802.750,848.810,848.810,0.000,0.000,0
1512340295.730,832.360,824.135,842.230,827.425,0.000,0.000,0
1512340295.734,829.070,835.650,840.585,834.005,0.000,0.000,0
1512340295.739,838.940,830.715,843.875,840.585,0.000,0.000,0
1512340295.743,842.230,819.200,845.520,840.585,0.000,0.000,0
1512340295.748,847.165,797.815,842.230,842.230,0.000,0.000,0
1512340295.752,847.165,804.395,847.165,842.230,0.000,0.000,0
1512340295.757,835.650,832.360,845.520,832.360,0.000,0.000,0
1512340295.761,848.810,824.135,848.810,845.520,0.000,0.000,0
1512340295.766,845.520,810.975,850.455,845.520,0.000,0.000,0
1512340295.771,840.585,817.555,845.520,840.585,0.000,0.000,0
1512340295.775,845.520,829.070,840.585,837.295,0.000,0.000,0
1512340295.780,843.875,820.845,842.230,845.520,0.000,0.000,0
1512340295.784,850.455,829.070,848.810,857.035,0.000,0.000,0
1512340295.789,853.745,814.265,850.455,861.970,0.000,0.000,0
1512340295.793,848.810,802.750,848.810,847.165,0.000,0.000,0
1512340295.798,842.230,830.715,845.520,830.715,0.000,0.000,0
1512340295.802,843.875,814.265,842.230,837.295,0.000,0.000,0
1512340295.807,845.520,822.490,842.230,834.005,0.000,0.000,0
1512340295.811,847.165,830.715,842.230,845.520,0.000,0.000,0
1512340295.816,842.230,825.780,842.230,848.810,0.000,0.000,0
1512340295.820,845.520,819.200,843.875,848.810,0.000,0.000,0
1512340295.825,847.165,809.330,847.165,855.390,0.000,0.000,0
1512340295.829,837.295,827.425,840.585,842.230,0.000,0.000,0
1512340295.834,842.230,804.395,842.230,838.940,0.000,0.000,0
1512340295.838,830.715,822.490,843.875,827.425,0.000,0.000,0
1512340295.843,832.360,820.845,843.875,832.360,0.000,0.000,0
1512340295.848,840.585,814.265,850.455,840.585,0.000,0.000,0
1512340295.852,853.745,824.135,855.390,847.165,0.000,0.000,0
1512340295.857,848.810,804.395,850.455,848.810,0.000,0.000,0
1512340295.861,832.360,804.395,847.165,835.650,0.000,0.000,0
1512340295.866,829.070,827.425,843.875,830.715,0.000,0.000,0
1512340295.870,832.360,812.620,843.875,835.650,0.000,0.000,0
1512340295.875,830.715,830.715,845.520,830.715,0.000,0.000,0
1512340295.879,842.230,806.040,847.165,840.585,0.000,0.000,0
1512340295.884,840.585,801.105,848.810,834.005,0.000,0.000,0
1512340295.888,837.295,827.425,847.165,827.425,0.000,0.000,0
1512340295.893,838.940,820.845,848.810,840.585,0.000,0.000,0
1512340295.897,840.585,810.975,847.165,848.810,0.000,0.000,0
1512340295.902,837.295,814.265,848.810,850.455,0.000,0.000,0
1512340295.906,835.650,819.200,848.810,840.585,0.000,0.000,0
1512340295.911,842.230,825.780,848.810,834.005,0.000,0.000,0
1512340295.915,842.230,820.845,843.875,835.650,0.000,0.000,0
1512340295.920,842.230,824.135,842.230,838.940,0.000,0.000,0
1512340295.925,857.035,820.845,848.810,853.745,0.000,0.000,0
1512340295.929,837.295,829.070,842.230,834.005,0.000,0.000,0
1512340295.934,843.875,819.200,843.875,837.295,0.000,0.000,0
1512340295.938,848.810,819.200,842.230,842.230,0.000,0.000,0
1512340295.943,850.455,794.526,845.520,842.230,0.000,0.000,0
1512340295.947,855.390,814.265,853.745,845.520,0.000,0.000,0
1512340295.952,834.005,852.100,845.520,832.360,0.000,0.000,0
1512340295.956,853.745,829.070,845.520,847.165,0.000,0.000,0
1512340295.961,857.035,820.845,848.810,853.745,0.000,0.000,0
1512340295.965,852.100,819.200,847.165,843.875,0.000,0.000,0
1512340295.970,858.680,812.620,848.810,845.520,0.000,0.000,0
1512340295.974,837.295,835.650,843.875,827.425,0.000,0.000,0
1512340295.979,848.810,838.940,847.165,842.230,0.000,0.000,0
1512340295.983,843.875,812.620,852.100,847.165,0.000,0.000,0
1512340295.988,843.875,814.265,853.745,838.940,0.000,0.000,0
1512340295.992,850.455,840.585,853.745,843.875,0.000,0.000,0
1512340295.997,845.520,829.070,843.875,837.295,0.000,0.000,0
1512340296.002,848.810,822.490,847.165,847.165,0.000,0.000,0
1512340296.006,840.585,799.460,845.520,848.810,0.000,0.000,0
1512340296.011,840.585,829.070,843.875,834.005,0.000,0.000,0
1512340296.015,843.875,824.135,843.875,835.650,0.000,0.000,0
1512340296.020,843.875,814.265,845.520,838.940,0.000,0.000,0
1512340296.024,835.650,827.425,842.230,825.780,0.000,0.000,0
1512340296.029,835.650,817.555,843.875,832.360,0.000,0.000,0
1512340296.033,835.650,815.910,845.520,832.360,0.000,0.000,0
1512340296.038,843.875,829.070,848.810,830.715,0.000,0.000,0
1512340296.042,848.810,832.360,848.810,837.295,0.000,0.000,0
1512340296.047,845.520,820.845,850.455,842.230,0.000,0.000,0
1512340296.051,840.585,827.425,850.455,838.940,0.000,0.000,0
1512340296.056,837.295,824.135,850.455,840.585,0.000,0.000,0
1512340296.060,837.295,815.910,847.165,840.585,0.000,0.000,0
1512340296.065,843.875,817.555,843.875,832.360,0.000,0.000,0
1512340296.069,848.810,824.135,842.230,838.940,0.000,0.000,0
1512340296.074,848.810,834.005,843.875,837.295,0.000,0.000,0
1512340296.079,847.165,824.135,847.165,840.585,0.000,0.000,0
1512340296.083,837.295,825.780,850.455,837.295,0.000,0.000,0
1512340296.088,840.585,824.135,850.455,843.875,0.000,0.000,0
1512340296.092,842.230,806.040,847.165,840.585,0.000,0.000,0
1512340296.097,840.585,824.135,848.810,837.295,0.000,0.000,0
1512340296.101,852.100,815.910,848.810,845.520,0.000,0.000,0
1512340296.106,834.005,825.780,845.520,829.070,0.000,0.000,0
1512340296.110,840.585,820.845,850.455,842.230,0.000,0.000,0
1512340296.115,847.165,827.425,852.100,843.875,0.000,0.000,0
1512340296.119,847.165,830.715,850.455,843.875,0.000,0.000,0
1512340296.124,834.005,822.490,845.520,832.360,0.000,0.000,0
1512340296.128,827.425,819.200,845.520,835.650,0.000,0.000,0
1512340296.133,827.425,824.135,842.230,832.360,0.000,0.000,0
1512340296.137,832.360,819.200,843.875,842.230,0.000,0.000,0
1512340296.142,852.100,804.395,852.100,857.035,0.000,0.000,0
1512340296.146,838.940,820.845,848.810,840.585,0.000,0.000,0
1512340296.151,832.360,819.200,847.165,843.875,0.000,0.000,0
1512340296.156,843.875,807.685,852.100,848.810,0.000,0.000,0
1512340296.160,847.165,825.780,848.810,840.585,0.000,0.000,0
1512340296.165,858.680,825.780,845.520,842.230,0.000,0.000,0
1512340296.169,852.100,814.265,845.520,835.650,0.000,0.000,0
1512340296.174,838.940,825.780,838.940,827.425,0.000,0.000,0
1512340296.178,843.875,807.685,848.810,843.875,0.000,0.000,1
1512340296.183,847.165,825.780,853.745,840.585,0.000,0.000,0
1512340296.187,840.585,827.425,845.520,825.780,0.000,0.000,0
1512340296.192,843.875,827.425,845.520,832.360,0.000,0.000,0
1512340296.196,843.875,815.910,842.230,838.940,0.000,0.000,0
