timestamps,TP9,FP1,FP2,TP10,n/a,n/a,Marker0
1512340098.999,827.425,814.265,847.165,830.715,0.000,0.000,0
1512340099.004,827.425,819.200,843.875,814.265,0.000,0.000,0
1512340099.008,825.780,825.780,842.230,822.490,0.000,0.000,0
1512340099.013,832.360,817.555,848.810,840.585,0.000,0.000,0
1512340099.017,837.295,820.845,850.455,843.875,0.000,0.000,0
1512340099.022,835.650,799.460,852.100,850.455,0.000,0.000,0
1512340099.026,827.425,804.395,853.745,829.070,0.000,0.000,0
1512340099.031,827.425,829.070,848.810,820.845,0.000,0.000,0
1512340099.035,834.005,827.425,852.100,827.425,0.000,0.000,0
1512340099.040,820.845,830.715,843.875,812.620,0.000,0.000,0
1512340099.044,832.360,809.330,843.875,824.135,0.000,0.000,0
1512340099.049,825.780,804.395,845.520,824.135,0.000,0.000,0
1512340099.053,820.845,809.330,843.875,824.135,0.000,0.000,0
1512340099.058,822.490,815.910,847.165,820.845,0.000,0.000,0
1512340099.063,820.845,817.555,845.520,817.555,0.000,0.000,0
1512340099.067,822.490,832.360,843.875,822.490,0.000,0.000,0
1512340099.072,840.585,819.200,850.455,848.810,0.000,0.000,0
1512340099.076,842.230,804.395,852.100,857.035,0.000,0.000,0
1512340099.081,825.780,819.200,845.520,827.425,0.000,0.000,0
1512340099.085,835.650,809.330,845.520,843.875,0.000,0.000,0
1512340099.090,837.295,809.330,848.810,834.005,0.000,0.000,0
1512340099.094,827.425,829.070,843.875,814.265,0.000,0.000,0
1512340099.099,825.780,815.910,847.165,824.135,0.000,0.000,0
1512340099.103,819.200,812.620,847.165,802.750,0.000,0.000,0
1512340099.108,825.780,830.715,842.230,812.620,0.000,0.000,0
1512340099.112,830.715,817.555,847.165,832.360,0.000,0.000,0
1512340099.117,825.780,815.910,845.520,825.780,0.000,0.000,0
1512340099.121,822.490,829.070,845.520,825.780,0.000,0.000,0
1512340099.126,827.425,825.780,842.230,825.780,0.000,0.000,0
1512340099.130,835.650,814.265,845.520,834.005,0.000,0.000,0
1512340099.135,837.295,824.135,845.520,822.490,0.000,0.000,0
1512340099.140,829.070,830.715,845.520,810.975,0.000,0.000,0
1512340099.144,825.780,819.200,848.810,834.005,0.000,0.000,0
1512340099.149,835.650,817.555,847.165,827.425,0.000,0.000,0
1512340099.153,824.135,807.685,840.585,827.425,0.000,0.000,0
1512340099.158,827.425,815.910,840.585,824.135,0.000,0.000,0
1512340099.162,830.715,829.070,845.520,819.200,0.000,0.000,0
1512340099.167,829.070,820.845,843.875,829.070,0.000,0.000,0
1512340099.171,842.230,802.750,848.810,835.650,0.000,0.000,0
1512340099.176,837.295,809.330,848.810,806.040,0.000,0.000,0
1512340099.180,827.425,820.845,850.455,791.236,0.000,0.000,0
1512340099.185,819.200,830.715,847.165,796.170,0.000,0.000,0
1512340099.189,822.490,825.780,845.520,822.490,0.000,0.000,0
1512340099.194,827.425,814.265,850.455,837.295,0.000,0.000,0
1512340099.198,835.650,820.845,848.810,842.230,0.000,0.000,0
1512340099.203,840.585,822.490,852.100,827.425,0.000,0.000,0
1512340099.207,832.360,825.780,852.100,825.780,0.000,0.000,0
1512340099.212,838.940,820.845,845.520,843.875,0.000,0.000,0
1512340099.217,843.875,819.200,845.520,842.230,0.000,0.000,0
1512340099.221,838.940,834.005,848.810,837.295,0.000,0.000,0
1512340099.226,842.230,835.650,848.810,834.005,0.000,0.000,0
1512340099.230,845.520,832.360,850.455,837.295,0.000,0.000,0
1512340099.235,835.650,825.780,843.875,837.295,0.000,0.000,0
1512340099.239,835.650,814.265,850.455,840.585,0.000,0.000,0
1512340099.244,825.780,824.135,843.875,810.975,0.000,0.000,0
1512340099.248,827.425,827.425,840.585,825.780,0.000,0.000,0
1512340099.253,834.005,819.200,847.165,830.715,0.000,0.000,0
1512340099.257,832.360,827.425,838.940,829.070,0.000,0.000,0
1512340099.262,845.520,829.070,847.165,840.585,0.000,0.000,0
1512340099.266,834.005,835.650,847.165,830.715,0.000,0.000,0
1512340099.271,840.585,812.620,848.810,850.455,0.000,0.000,0
1512340099.275,835.650,824.135,847.165,845.520,0.000,0.000,0
1512340099.280,835.650,815.910,847.165,843.875,0.000,0.000,0
1512340099.284,835.650,817.555,850.455,830.715,0.000,0.000,0
1512340099.289,829.070,837.295,845.520,824.135,0.000,0.000,0
1512340099.294,827.425,819.200,842.230,810.975,0.000,0.000,0
1512340099.298,827.425,827.425,843.875,822.490,0.000,0.000,0
1512340099.303,829.070,827.425,842.230,812.620,0.000,0.000,0
1512340099.307,824.135,827.425,840.585,825.780,0.000,0.000,0
1512340099.312,838.940,827.425,848.810,840.585,0.000,0.000,0
1512340099.316,837.295,834.005,847.165,842.230,0.000,0.000,0
1512340099.321,840.585,820.845,845.520,845.520,0.000,0.000,0
1512340099.325,834.005,817.555,845.520,819.200,0.000,0.000,0
1512340099.330,822.490,822.490,838.940,814.265,0.000,0.000,0
1512340099.334,834.005,825.780,843.875,822.490,0.000,0.000,0
1512340099.339,825.780,834.005,843.875,815.910,0.000,0.000,0
1512340099.343,838.940,822.490,845.520,832.360,0.000,0.000,0
1512340099.348,834.005,822.490,845.520,822.490,0.000,0.000,0
1512340099.352,834.005,822.490,843.875,824.135,0.000,0.000,0
1512340099.357,832.360,832.360,850.455,840.585,0.000,0.000,0
1512340099.361,834.005,832.360,847.165,837.295,0.000,0.000,0
1512340099.366,829.070,829.070,845.520,825.780,0.000,0.000,0
1512340099.371,834.005,832.360,845.520,824.135,0.000,0.000,0
1512340099.375,842.230,819.200,840.585,834.005,0.000,0.000,0
1512340099.380,834.005,827.425,843.875,838.940,0.000,0.000,0
1512340099.384,843.875,832.360,838.940,835.650,0.000,0.000,0
1512340099.389,853.745,822.490,843.875,843.875,0.000,0.000,0
1512340099.393,832.360,834.005,843.875,824.135,0.000,0.000,0
1512340099.398,835.650,830.715,843.875,827.425,0.000,0.000,0
1512340099.402,837.295,830.715,847.165,830.715,0.000,0.000,0
1512340099.407,825.780,830.715,843.875,824.135,0.000,0.000,0
1512340099.411,822.490,820.845,847.165,838.940,0.000,0.000,0
1512340099.416,815.910,822.490,845.520,834.005,0.000,0.000,0
1512340099.420,819.200,829.070,845.520,827.425,0.000,0.000,0
1512340099.425,834.005,834.005,850.455,837.295,0.000,0.000,0
1512340099.429,847.165,830.715,852.100,840.585,0.000,0.000,0
1512340099.434,838.940,820.845,850.455,837.295,0.000,0.000,0
1512340099.438,830.715,824.135,845.520,830.715,0.000,0.000,0
1512340099.443,825.780,824.135,838.940,822.490,0.000,0.000,0
1512340099.448,827.425,822.490,845.520,832.360,0.000,0.000,0
1512340099.452,838.940,830.715,848.810,843.875,0.000,0.000,0
1512340099.457,837.295,835.650,848.810,842.230,0.000,0.000,0
1512340099.461,835.650,845.520,848.810,829.070,0.000,0.000,0
1512340099.466,838.940,838.940,848.810,825.780,0.000,0.000,0
1512340099.470,837.295,847.165,850.455,825.780,0.000,0.000,0
1512340099.475,832.360,827.425,843.875,829.070,0.000,0.000,0
1512340099.479,832.360,820.845,843.875,829.070,0.000,0.000,0
1512340099.484,827.425,817.555,838.940,832.360,0.000,0.000,0
1512340099.488,824.135,830.715,842.230,827.425,0.000,0.000,0
1512340099.493,838.940,838.940,848.810,837.295,0.000,0.000,0
1512340099.497,835.650,832.360,845.520,827.425,0.000,0.000,0
1512340099.502,834.005,837.295,845.520,815.910,0.000,0.000,0
1512340099.506,835.650,834.005,845.520,820.845,0.000,0.000,0
1512340099.511,835.650,834.005,850.455,837.295,0.000,0.000,0
1512340099.515,827.425,840.585,848.810,827.425,0.000,0.000,0
1512340099.520,819.200,830.715,847.165,814.265,0.000,0.000,0
1512340099.525,829.070,825.780,847.165,830.715,0.000,0.000,0
1512340099.529,825.780,829.070,848.810,822.490,0.000,0.000,0
1512340099.534,834.005,832.360,845.520,843.875,0.000,0.000,0
1512340099.538,840.585,822.490,852.100,850.455,0.000,0.000,0
1512340099.543,827.425,837.295,845.520,814.265,0.000,0.000,0
1512340099.547,840.585,848.810,845.520,819.200,0.000,0.000,0
1512340099.552,832.360,843.875,850.455,820.845,0.000,0.000,0
1512340099.556,832.360,857.035,850.455,830.715,0.000,0.000,0
1512340099.561,845.520,838.940,845.520,834.005,0.000,0.000,0
1512340099.565,829.070,845.520,842.230,835.650,0.000,0.000,0
1512340099.570,834.005,819.200,848.810,843.875,0.000,0.000,0
1512340099.574,835.650,810.975,853.745,842.230,0.000,0.000,0
1512340099.579,822.490,830.715,852.100,827.425,0.000,0.000,0
1512340099.583,824.135,829.070,847.165,812.620,0.000,0.000,0
1512340099.588,825.780,842.230,845.520,820.845,0.000,0.000,0
1512340099.592,822.490,842.230,847.165,810.975,0.000,0.000,0
1512340099.597,829.070,830.715,853.745,835.650,0.000,0.000,0
1512340099.602,834.005,834.005,852.100,824.135,0.000,0.000,0
1512340099.606,848.810,822.490,857.035,829.070,0.000,0.000,0
1512340099.611,829.070,838.940,848.810,820.845,0.000,0.000,0
1512340099.615,838.940,838.940,848.810,827.425,0.000,0.000,0
1512340099.620,834.005,847.165,845.520,819.200,0.000,0.000,0
1512340099.624,827.425,845.520,840.585,827.425,0.000,0.000,0
1512340099.629,842.230,827.425,847.165,834.005,0.000,0.000,0
1512340099.633,834.005,838.940,850.455,830.715,0.000,0.000,0
1512340099.638,822.490,847.165,845.520,830.715,0.000,0.000,0
1512340099.642,832.360,840.585,848.810,840.585,0.000,0.000,0
1512340099.647,832.360,847.165,847.165,834.005,0.000,0.000,0
1512340099.651,834.005,838.940,843.875,835.650,0.000,0.000,0
1512340099.656,835.650,848.810,847.165,840.585,0.000,0.000,0
1512340099.660,834.005,852.100,843.875,825.780,0.000,0.000,0
1512340099.665,827.425,858.680,845.520,835.650,0.000,0.000,0
1512340099.669,845.520,842.230,850.455,853.745,0.000,0.000,0
1512340099.674,835.650,837.295,850.455,843.875,0.000,0.000,0
1512340099.678,829.070,845.520,848.810,835.650,0.000,0.000,0
1512340099.683,838.940,842.230,853.745,843.875,0.000,0.000,0
1512340099.688,838.940,845.520,848.810,832.360,0.000,0.000,0
1512340099.692,832.360,843.875,847.165,822.490,0.000,0.000,0
1512340099.697,834.005,845.520,845.520,827.425,0.000,0.000,0
1512340099.701,832.360,848.810,847.165,812.620,0.000,0.000,0
1512340099.706,827.425,863.615,847.165,819.200,0.000,0.000,0
1512340099.710,838.940,845.520,850.455,843.875,0.000,0.000,0
1512340099.715,834.005,845.520,847.165,837.295,0.000,0.000,0
1512340099.719,832.360,832.360,848.810,827.425,0.000,0.000,0
1512340099.724,837.295,842.230,852.100,829.070,0.000,0.000,0
1512340099.728,837.295,847.165,853.745,835.650,0.000,0.000,0
1512340099.733,832.360,861.970,850.455,819.200,0.000,0.000,0
1512340099.737,835.650,852.100,842.230,834.005,0.000,0.000,0
1512340099.742,835.650,842.230,840.585,817.555,0.000,0.000,0
1512340099.746,817.555,850.455,842.230,806.040,0.000,0.000,0
1512340099.751,812.620,842.230,848.810,830.715,0.000,0.000,0
1512340099.755,815.910,842.230,853.745,820.845,0.000,0.000,0
1512340099.760,806.040,850.455,850.455,815.910,0.000,0.000,0
1512340099.765,817.555,838.940,843.875,832.360,0.000,0.000,0
1512340099.769,812.620,855.390,847.165,810.975,0.000,0.000,0
1512340099.774,807.685,861.970,845.520,822.490,0.000,0.000,0
1512340099.778,814.265,850.455,848.810,830.715,0.000,0.000,0
1512340099.783,817.555,847.165,848.810,829.070,0.000,0.000,0
1512340099.787,825.780,837.295,848.810,850.455,0.000,0.000,0
1512340099.792,824.135,848.810,843.875,829.070,0.000,0.000,0
1512340099.796,835.650,832.360,848.810,835.650,0.000,0.000,0
1512340099.801,832.360,848.810,853.745,835.650,0.000,0.000,0
1512340099.805,824.135,852.100,848.810,829.070,0.000,0.000,0
1512340099.810,830.715,838.940,852.100,835.650,0.000,0.000,0
1512340099.814,837.295,853.745,850.455,838.940,0.000,0.000,0
1512340099.819,848.810,850.455,855.390,840.585,0.000,0.000,0
1512340099.823,832.360,845.520,848.810,824.135,0.000,0.000,0
1512340099.828,825.780,852.100,848.810,827.425,0.000,0.000,0
1512340099.832,822.490,834.005,847.165,827.425,0.000,0.000,0
1512340099.837,820.845,843.875,838.940,819.200,0.000,0.000,0
1512340099.842,842.230,834.005,850.455,829.070,0.000,0.000,0
1512340099.846,838.940,840.585,848.810,829.070,0.000,0.000,0
1512340099.851,832.360,832.360,847.165,824.135,0.000,0.000,0
1512340099.855,824.135,835.650,843.875,817.555,0.000,0.000,0
1512340099.860,827.425,829.070,850.455,827.425,0.000,0.000,0
1512340099.864,830.715,842.230,850.455,820.845,0.000,0.000,0
1512340099.869,827.425,850.455,848.810,820.845,0.000,0.000,0
1512340099.873,830.715,845.520,853.745,835.650,0.000,0.000,0
1512340099.878,829.070,853.745,850.455,838.940,0.000,0.000,0
1512340099.882,824.135,847.165,845.520,834.005,0.000,0.000,0
1512340099.887,847.165,822.490,850.455,840.585,0.000,0.000,0
1512340099.891,842.230,837.295,850.455,829.070,0.000,0.000,0
1512340099.896,840.585,840.585,847.165,830.715,0.000,0.000,0
1512340099.900,834.005,825.780,848.810,838.940,0.000,0.000,0
1512340099.905,829.070,837.295,850.455,825.780,0.000,0.000,0
1512340099.909,837.295,845.520,853.745,827.425,0.000,0.000,0
1512340099.914,837.295,827.425,847.165,829.070,0.000,0.000,0
1512340099.919,827.425,845.520,847.165,820.845,0.000,0.000,0
1512340099.923,827.425,843.875,840.585,830.715,0.000,0.000,0
1512340099.928,835.650,830.715,845.520,835.650,0.000,0.000,0
1512340099.932,827.425,837.295,853.745,832.360,0.000,0.000,0
1512340099.937,824.135,843.875,852.100,825.780,0.000,0.000,0
1512340099.941,825.780,840.585,848.810,825.780,0.000,0.000,0
1512340099.946,822.490,838.940,848.810,822.490,0.000,0.000,0
1512340099.950,834.005,840.585,848.810,822.490,0.000,0.000,0
1512340099.955,829.070,840.585,845.520,834.005,0.000,0.000,0
1512340099.959,834.005,832.360,848.810,838.940,0.000,0.000,0
1512340099.964,832.360,842.230,848.810,825.780,0.000,0.000,0
1512340099.968,838.940,838.940,850.455,847.165,0.000,0.000,0
1512340099.973,838.940,834.005,852.100,829.070,0.000,0.000,0
1512340099.977,827.425,848.810,842.230,810.975,0.000,0.000,0
1512340099.982,830.715,852.100,843.875,820.845,0.000,0.000,0
1512340099.986,834.005,838.940,845.520,835.650,0.000,0.000,0
1512340099.991,830.715,838.940,848.810,837.295,0.000,0.000,0
1512340099.996,832.360,830.715,855.390,843.875,0.000,0.000,0
1512340100.000,835.650,825.780,855.390,830.715,0.000,0.000,0
1512340100.005,824.135,832.360,850.455,815.910,0.000,0.000,0
1512340100.009,827.425,840.585,848.810,829.070,0.000,0.000,0
1512340100.014,822.490,838.940,847.165,837.295,0.000,0.000,0
1512340100.018,817.555,837.295,843.875,815.910,0.000,0.000,0
1512340100.023,827.425,838.940,848.810,822.490,0.000,0.000,0
1512340100.027,834.005,842.230,852.100,825.780,0.000,0.000,0
1512340100.032,834.005,843.875,852.100,837.295,0.000,0.000,0
1512340100.036,835.650,835.650,855.390,848.810,0.000,0.000,0
1512340100.041,825.780,837.295,853.745,829.070,0.000,0.000,0
1512340100.045,824.135,837.295,850.455,824.135,0.000,0.000,0
1512340100.050,832.360,834.005,848.810,825.780,0.000,0.000,0
1512340100.054,832.360,847.165,847.165,827.425,0.000,0.000,0
1512340100.059,843.875,842.230,848.810,842.230,0.000,0.000,0
1512340100.063,840.585,837.295,850.455,834.005,0.000,0.000,0
1512340100.068,834.005,840.585,847.165,830.715,0.000,0.000,0
1512340100.073,830.715,837.295,845.520,829.070,0.000,0.000,0
1512340100.077,822.490,825.780,843.875,829.070,0.000,0.000,0
1512340100.082,832.360,829.070,850.455,843.875,0.000,0.000,0
1512340100.086,848.810,820.845,860.325,871.840,0.000,0.000,0
1512340100.091,838.940,840.585,855.390,848.810,0.000,0.000,0
1512340100.095,824.135,852.100,842.230,817.555,0.000,0.000,0
1512340100.100,822.490,843.875,837.295,809.330,0.000,0.000,0
1512340100.104,814.265,848.810,835.650,804.395,0.000,0.000,0
1512340100.109,830.715,838.940,842.230,824.135,0.000,0.000,0
1512340100.113,832.360,842.230,842.230,830.715,0.000,0.000,0
1512340100.118,830.715,847.165,840.585,825.780,0.000,0.000,0
1512340100.122,830.715,825.780,843.875,810.975,0.000,0.000,0
1512340100.127,827.425,837.295,840.585,802.750,0.000,0.000,0
1512340100.131,834.005,837.295,845.520,814.265,0.000,0.000,0
1512340100.136,822.490,845.520,837.295,804.395,0.000,0.000,0
1512340100.140,820.845,840.585,842.230,834.005,0.000,0.000,0
1512340100.145,825.780,830.715,847.165,819.200,0.000,0.000,0
1512340100.150,829.070,838.940,842.230,812.620,0.000,0.000,0
1512340100.154,832.360,842.230,840.585,824.135,0.000,0.000,0
1512340100.159,838.940,837.295,842.230,830.715,0.000,0.000,0
1512340100.163,838.940,832.360,845.520,829.070,0.000,0.000,0
1512340100.168,835.650,835.650,845.520,830.715,0.000,0.000,0
1512340100.172,837.295,838.940,834.005,820.845,0.000,0.000,0
1512340100.177,829.070,832.360,837.295,829.070,0.000,0.000,0
1512340100.181,829.070,837.295,842.230,832.360,0.000,0.000,0
1512340100.186,838.940,825.780,848.810,835.650,0.000,0.000,0
1512340100.190,835.650,840.585,847.165,817.555,0.000,0.000,0
1512340100.195,843.875,832.360,842.230,840.585,0.000,0.000,0
1512340100.199,834.005,838.940,842.230,820.845,0.000,0.000,0
1512340100.204,834.005,845.520,843.875,819.200,0.000,0.000,0
1512340100.208,845.520,827.425,848.810,838.940,0.000,0.000,0
1512340100.213,843.875,834.005,843.875,834.005,0.000,0.000,0
1512340100.217,843.875,832.360,840.585,830.715,0.000,0.000,0
1512340100.222,847.165,834.005,842.230,834.005,0.000,0.000,0
1512340100.227,834.005,835.650,847.165,840.585,0.000,0.000,0
1512340100.231,832.360,837.295,847.165,830.715,0.000,0.000,0
1512340100.236,830.715,837.295,845.520,825.780,0.000,0.000,0
1512340100.240,835.650,835.650,848.810,843.875,0.000,0.000,0
1512340100.245,840.585,834.005,848.810,832.360,0.000,0.000,0
1512340100.249,838.940,829.070,843.875,834.005,0.000,0.000,0
1512340100.254,832.360,835.650,843.875,845.520,0.000,0.000,0
1512340100.258,834.005,830.715,843.875,835.650,0.000,0.000,0
1512340100.263,840.585,830.715,843.875,837.295,0.000,0.000,0
1512340100.267,840.585,815.910,848.810,860.325,0.000,0.000,0
1512340100.272,842.230,817.555,847.165,835.650,0.000,0.000,0
1512340100.276,824.135,842.230,843.875,806.040,0.000,0.000,0
1512340100.281,832.360,834.005,847.165,814.265,0.000,0.000,0
1512340100.285,829.070,834.005,847.165,806.040,0.000,0.000,0
1512340100.290,830.715,825.780,845.520,815.910,0.000,0.000,0
1512340100.294,830.715,827.425,842.230,819.200,0.000,0.000,0
1512340100.299,829.070,834.005,845.520,827.425,0.000,0.000,0
1512340100.303,835.650,832.360,847.165,837.295,0.000,0.000,0
1512340100.308,837.295,835.650,845.520,834.005,0.000,0.000,0
1512340100.313,845.520,829.070,848.810,838.940,0.000,0.000,0
1512340100.317,824.135,835.650,847.165,820.845,0.000,0.000,0
1512340100.322,835.650,825.780,847.165,834.005,0.000,0.000,0
1512340100.326,832.360,820.845,848.810,832.360,0.000,0.000,0
1512340100.331,837.295,827.425,848.810,845.520,0.000,0.000,0
1512340100.335,845.520,817.555,855.390,852.100,0.000,0.000,0
1512340100.340,827.425,822.490,855.390,827.425,0.000,0.000,0
1512340100.344,824.135,824.135,847.165,834.005,0.000,0.000,0
1512340100.349,832.360,827.425,847.165,825.780,0.000,0.000,0
1512340100.353,834.005,843.875,838.940,802.750,0.000,0.000,0
1512340100.358,838.940,832.360,847.165,825.780,0.000,0.000,0
1512340100.362,832.360,819.200,847.165,817.555,0.000,0.000,0
1512340100.367,824.135,825.780,850.455,819.200,0.000,0.000,0
1512340100.371,824.135,834.005,848.810,832.360,0.000,0.000,0
1512340100.376,832.360,832.360,848.810,837.295,0.000,0.000,0
1512340100.380,827.425,837.295,850.455,827.425,0.000,0.000,0
1512340100.385,822.490,834.005,848.810,822.490,0.000,0.000,0
1512340100.390,825.780,830.715,847.165,829.070,0.000,0.000,0
1512340100.394,825.780,840.585,843.875,825.780,0.000,0.000,0
1512340100.399,835.650,840.585,845.520,845.520,0.000,0.000,0
1512340100.403,835.650,810.975,850.455,855.390,0.000,0.000,0
1512340100.408,834.005,819.200,850.455,830.715,0.000,0.000,0
1512340100.412,829.070,830.715,852.100,834.005,0.000,0.000,0
1512340100.417,835.650,822.490,852.100,840.585,0.000,0.000,0
1512340100.421,827.425,829.070,852.100,825.780,0.000,0.000,0
1512340100.426,829.070,832.360,857.035,832.360,0.000,0.000,0
1512340100.430,827.425,815.910,848.810,817.555,0.000,0.000,0
1512340100.435,817.555,827.425,837.295,806.040,0.000,0.000,0
1512340100.439,832.360,827.425,842.230,825.780,0.000,0.000,0
1512340100.444,827.425,824.135,838.940,817.555,0.000,0.000,0
1512340100.448,837.295,814.265,847.165,810.975,0.000,0.000,0
1512340100.453,834.005,812.620,850.455,781.366,0.000,0.000,0
1512340100.457,825.780,819.200,847.165,761.626,0.000,0.000,0
1512340100.462,825.780,819.200,843.875,743.531,0.000,0.000,0
1512340100.467,830.715,829.070,847.165,759.981,0.000,0.000,0
1512340100.471,843.875,829.070,847.165,776.431,0.000,0.000,0
1512340100.476,835.650,820.845,848.810,771.496,0.000,0.000,0
1512340100.480,829.070,824.135,847.165,779.721,0.000,0.000,0
1512340100.485,830.715,822.490,848.810,794.526,0.000,0.000,0
1512340100.489,825.780,838.940,847.165,802.750,0.000,0.000,0
1512340100.494,819.200,845.520,843.875,830.715,0.000,0.000,0
1512340100.498,817.555,845.520,842.230,825.780,0.000,0.000,0
1512340100.503,820.845,832.360,842.230,857.035,0.000,0.000,0
1512340100.507,832.360,824.135,850.455,861.970,0.000,0.000,0
1512340100.512,843.875,819.200,850.455,865.260,0.000,0.000,0
1512340100.516,838.940,807.685,848.810,878.419,0.000,0.000,0
1512340100.521,829.070,812.620,847.165,870.195,0.000,0.000,0
1512340100.525,817.555,822.490,842.230,855.390,0.000,0.000,0
1512340100.530,830.715,820.845,847.165,871.840,0.000,0.000,0
1512340100.534,814.265,837.295,842.230,853.745,0.000,0.000,0
1512340100.539,830.715,835.650,847.165,861.970,0.000,0.000,0
1512340100.544,829.070,829.070,848.810,865.260,0.000,0.000,0
1512340100.548,829.070,830.715,847.165,873.485,0.000,0.000,0
1512340100.553,837.295,817.555,852.100,857.035,0.000,0.000,0
1512340100.557,835.650,815.910,850.455,840.585,0.000,0.000,0
1512340100.562,837.295,815.910,848.810,847.165,0.000,0.000,0
1512340100.566,835.650,819.200,852.100,822.490,0.000,0.000,0
1512340100.571,829.070,830.715,848.810,835.650,0.000,0.000,0
1512340100.575,843.875,815.910,845.520,847.165,0.000,0.000,0
1512340100.580,830.715,822.490,843.875,834.005,0.000,0.000,0
1512340100.584,824.135,827.425,845.520,827.425,0.000,0.000,0
1512340100.589,820.845,825.780,843.875,838.940,0.000,0.000,0
1512340100.593,814.265,829.070,845.520,829.070,0.000,0.000,0
1512340100.598,820.845,825.780,845.520,838.940,0.000,0.000,0
1512340100.602,838.940,809.330,845.520,853.745,0.000,0.000,0
1512340100.607,834.005,820.845,845.520,832.360,0.000,0.000,0
1512340100.611,829.070,810.975,853.745,838.940,0.000,0.000,0
1512340100.616,829.070,822.490,852.100,817.555,0.000,0.000,0
1512340100.621,824.135,832.360,848.810,824.135,0.000,0.000,0
1512340100.625,834.005,819.200,852.100,834.005,0.000,0.000,0
1512340100.630,835.650,822.490,847.165,842.230,0.000,0.000,0
1512340100.634,829.070,815.910,850.455,830.715,0.000,0.000,0
1512340100.639,814.265,822.490,852.100,806.040,0.000,0.000,0
1512340100.643,822.490,824.135,860.325,814.265,0.000,0.000,0
1512340100.648,819.200,822.490,850.455,801.105,0.000,0.000,0
1512340100.652,794.526,822.490,842.230,799.460,0.000,0.000,0
1512340100.657,781.366,806.040,852.100,799.460,0.000,0.000,0
1512340100.661,768.206,822.490,848.810,763.271,0.000,0.000,0
1512340100.666,763.271,824.135,858.680,763.271,0.000,0.000,0
1512340100.670,746.821,824.135,853.745,738.596,0.000,0.000,0
1512340100.675,736.951,814.265,850.455,723.791,0.000,0.000,0
1512340100.679,732.016,815.910,855.390,725.436,0.000,0.000,0
1512340100.684,727.081,810.975,860.325,710.632,0.000,0.000,0
1512340100.688,718.856,802.750,857.035,715.566,0.000,0.000,0
1512340100.693,708.987,817.555,853.745,715.566,0.000,0.000,0
1512340100.698,715.566,814.265,853.745,735.306,0.000,0.000,0
1512340100.702,736.951,809.330,861.970,736.951,0.000,0.000,0
1512340100.707,738.596,812.620,852.100,723.791,0.000,0.000,3
1512340100.711,732.016,830.715,843.875,733.661,0.000,0.000,0
1512340100.716,745.176,824.135,847.165,758.336,0.000,0.000,0
1512340100.720,759.981,827.425,848.810,774.786,0.000,0.000,0
1512340100.725,776.431,810.975,850.455,784.656,0.000,0.000,0
1512340100.729,787.946,804.395,852.100,773.141,0.000,0.000,0
1512340100.734,804.395,820.845,845.520,761.626,0.000,0.000,0
1512340100.738,819.200,815.910,848.810,781.366,0.000,0.000,0
1512340100.743,817.555,827.425,852.100,784.656,0.000,0.000,0
1512340100.747,822.490,822.490,847.165,797.815,0.000,0.000,0
1512340100.752,822.490,814.265,838.940,804.395,0.000,0.000,0
1512340100.756,829.070,825.780,838.940,819.200,0.000,0.000,0
1512340100.761,837.295,807.685,843.875,837.295,0.000,0.000,0
1512340100.765,838.940,806.040,845.520,834.005,0.000,0.000,0
1512340100.770,848.810,830.715,843.875,838.940,0.000,0.000,0
1512340100.775,863.615,822.490,840.585,847.165,0.000,0.000,0
1512340100.779,868.550,817.555,842.230,863.615,0.000,0.000,0
1512340100.784,871.840,809.330,847.165,876.775,0.000,0.000,0
1512340100.788,858.680,810.975,845.520,865.260,0.000,0.000,0
1512340100.793,865.260,819.200,838.940,861.970,0.000,0.000,0
1512340100.797,863.615,819.200,842.230,860.325,0.000,0.000,0
1512340100.802,855.390,830.715,840.585,850.455,0.000,0.000,0
1512340100.806,865.260,814.265,845.520,871.840,0.000,0.000,0
1512340100.811,870.195,815.910,843.875,865.260,0.000,0.000,0
1512340100.815,870.195,824.135,845.520,858.680,0.000,0.000,0
1512340100.820,871.840,827.425,845.520,878.419,0.000,0.000,0
1512340100.824,878.419,820.845,853.745,884.999,0.000,0.000,0
1512340100.829,870.195,817.555,845.520,876.775,0.000,0.000,0
1512340100.833,878.419,814.265,847.165,875.130,0.000,0.000,0
1512340100.838,876.775,810.975,842.230,870.195,0.000,0.000,0
1512340100.842,868.550,810.975,838.940,865.260,0.000,0.000,0
1512340100.847,876.775,820.845,843.875,883.354,0.000,0.000,0
1512340100.852,881.709,814.265,847.165,878.419,0.000,0.000,0
1512340100.856,878.419,832.360,845.520,858.680,0.000,0.000,0
1512340100.861,884.999,822.490,845.520,865.260,0.000,0.000,0
1512340100.865,880.064,822.490,842.230,853.745,0.000,0.000,0
1512340100.870,875.130,825.780,842.230,870.195,0.000,0.000,0
1512340100.874,878.419,809.330,847.165,873.485,0.000,0.000,0
1512340100.879,881.709,820.845,848.810,866.905,0.000,0.000,0
1512340100.883,865.260,820.845,845.520,853.745,0.000,0.000,0
1512340100.888,880.064,807.685,842.230,871.840,0.000,0.000,0
1512340100.892,876.775,819.200,845.520,875.130,0.000,0.000,0
1512340100.897,878.419,815.910,842.230,868.550,0.000,0.000,0
1512340100.901,871.840,822.490,845.520,866.905,0.000,0.000,0
1512340100.906,871.840,820.845,852.100,871.840,0.000,0.000,0
1512340100.910,865.260,807.685,848.810,868.550,0.000,0.000,0
1512340100.915,863.615,812.620,842.230,878.419,0.000,0.000,0
1512340100.919,865.260,806.040,845.520,860.325,0.000,0.000,0
1512340100.924,847.165,822.490,834.005,834.005,0.000,0.000,0
1512340100.928,852.100,830.715,838.940,853.745,0.000,0.000,0
1512340100.933,857.035,820.845,843.875,860.325,0.000,0.000,0
1512340100.938,857.035,804.395,843.875,878.419,0.000,0.000,0
1512340100.942,861.970,810.975,848.810,852.100,0.000,0.000,0
1512340100.947,860.325,819.200,850.455,848.810,0.000,0.000,0
1512340100.951,857.035,822.490,845.520,845.520,0.000,0.000,0
1512340100.956,857.035,817.555,847.165,850.455,0.000,0.000,0
1512340100.960,850.455,807.685,845.520,855.390,0.000,0.000,0
1512340100.965,843.875,806.040,845.520,843.875,0.000,0.000,0
1512340100.969,850.455,807.685,848.810,845.520,0.000,0.000,0
1512340100.974,850.455,802.750,848.810,858.680,0.000,0.000,0
1512340100.978,842.230,824.135,848.810,853.745,0.000,0.000,0
1512340100.983,843.875,822.490,848.810,847.165,0.000,0.000,0
1512340100.987,832.360,824.135,840.585,840.585,0.000,0.000,0
1512340100.992,835.650,824.135,842.230,847.165,0.000,0.000,0
1512340100.996,838.940,806.040,843.875,847.165,0.000,0.000,0
1512340101.001,838.940,806.040,848.810,850.455,0.000,0.000,0
1512340101.005,830.715,829.070,845.520,819.200,0.000,0.000,0
1512340101.010,835.650,819.200,847.165,825.780,0.000,0.000,0
1512340101.015,834.005,814.265,843.875,827.425,0.000,0.000,0
1512340101.019,832.360,824.135,843.875,830.715,0.000,0.000,0
1512340101.024,840.585,809.330,847.165,845.520,0.000,0.000,0
1512340101.028,837.295,810.975,840.585,825.780,0.000,0.000,0
1512340101.033,832.360,822.490,843.875,827.425,0.000,0.000,0
1512340101.037,847.165,817.555,845.520,847.165,0.000,0.000,0
1512340101.042,845.520,815.910,843.875,837.295,0.000,0.000,0
1512340101.046,835.650,829.070,845.520,830.715,0.000,0.000,0
1512340101.051,842.230,827.425,847.165,837.295,0.000,0.000,0
1512340101.055,838.940,814.265,845.520,829.070,0.000,0.000,0
1512340101.060,834.005,814.265,845.520,832.360,0.000,0.000,0
1512340101.064,842.230,804.395,842.230,850.455,0.000,0.000,0
1512340101.069,835.650,804.395,843.875,829.070,0.000,0.000,0
1512340101.073,830.715,825.780,837.295,820.845,0.000,0.000,0
1512340101.078,840.585,817.555,843.875,829.070,0.000,0.000,0
1512340101.082,829.070,817.555,845.520,815.910,0.000,0.000,0
1512340101.087,832.360,807.685,845.520,829.070,0.000,0.000,0
1512340101.092,837.295,812.620,852.100,829.070,0.000,0.000,0
1512340101.096,827.425,820.845,845.520,832.360,0.000,0.000,0
1512340101.101,822.490,819.200,845.520,830.715,0.000,0.000,0
1512340101.105,825.780,817.555,845.520,829.070,0.000,0.000,0
1512340101.110,827.425,825.780,843.875,819.200,0.000,0.000,0
1512340101.114,838.940,807.685,847.165,840.585,0.000,0.000,0
1512340101.119,834.005,814.265,843.875,838.940,0.000,0.000,0
1512340101.123,830.715,817.555,843.875,837.295,0.000,0.000,0
1512340101.128,827.425,806.040,842.230,837.295,0.000,0.000,0
1512340101.132,838.940,807.685,847.165,829.070,0.000,0.000,0
1512340101.137,840.585,812.620,847.165,814.265,0.000,0.000,0
1512340101.141,832.360,827.425,842.230,820.845,0.000,0.000,0
1512340101.146,822.490,807.685,847.165,820.845,0.000,0.000,0
1512340101.150,806.040,819.200,838.940,806.040,0.000,0.000,0
1512340101.155,817.555,812.620,845.520,822.490,0.000,0.000,0
1512340101.159,827.425,807.685,850.455,820.845,0.000,0.000,0
1512340101.164,827.425,819.200,843.875,820.845,0.000,0.000,0
1512340101.169,834.005,812.620,842.230,838.940,0.000,0.000,0
1512340101.173,830.715,810.975,843.875,845.520,0.000,0.000,0
1512340101.178,837.295,817.555,842.230,825.780,0.000,0.000,0
1512340101.182,837.295,834.005,842.230,807.685,0.000,0.000,0
1512340101.187,834.005,830.715,842.230,822.490,0.000,0.000,0
1512340101.191,829.070,820.845,845.520,819.200,0.000,0.000,0
1512340101.196,834.005,817.555,845.520,834.005,0.000,0.000,0
1512340101.200,838.940,820.845,848.810,832.360,0.000,0.000,0
1512340101.205,827.425,819.200,843.875,834.005,0.000,0.000,0
1512340101.209,832.360,812.620,840.585,827.425,0.000,0.000,0
1512340101.214,837.295,815.910,840.585,835.650,0.000,0.000,0
1512340101.218,840.585,807.685,847.165,829.070,0.000,0.000,0
1512340101.223,835.650,824.135,842.230,807.685,0.000,0.000,0
1512340101.227,835.650,822.490,845.520,834.005,0.000,0.000,0
1512340101.232,834.005,830.715,842.230,824.135,0.000,0.000,0
1512340101.236,845.520,825.780,842.230,830.715,0.000,0.000,0
1512340101.241,842.230,815.910,847.165,834.005,0.000,0.000,0
1512340101.246,835.650,820.845,845.520,837.295,0.000,0.000,0
1512340101.250,830.715,812.620,847.165,830.715,0.000,0.000,0
1512340101.255,837.295,819.200,847.165,837.295,0.000,0.000,0
1512340101.259,843.875,815.910,847.165,830.715,0.000,0.000,0
1512340101.264,842.230,822.490,847.165,815.910,0.000,0.000,0
1512340101.268,845.520,824.135,848.810,837.295,0.000,0.000,0
1512340101.273,840.585,830.715,852.100,840.585,0.000,0.000,0
1512340101.277,832.360,815.910,842.230,838.940,0.000,0.000,0
1512340101.282,850.455,794.526,847.165,866.905,0.000,0.000,0
1512340101.286,850.455,794.526,847.165,845.520,0.000,0.000,0
1512340101.291,843.875,815.910,838.940,830.715,0.000,0.000,0
1512340101.295,837.295,817.555,843.875,824.135,0.000,0.000,0
1512340101.300,834.005,815.910,842.230,809.330,0.000,0.000,0
1512340101.304,824.135,829.070,840.585,810.975,0.000,0.000,0
1512340101.309,827.425,829.070,840.585,819.200,0.000,0.000,0
1512340101.313,838.940,830.715,843.875,834.005,0.000,0.000,0
1512340101.318,834.005,822.490,843.875,842.230,0.000,0.000,0
1512340101.323,840.585,809.330,843.875,834.005,0.000,0.000,0
1512340101.327,834.005,814.265,845.520,825.780,0.000,0.000,0
1512340101.332,834.005,822.490,838.940,829.070,0.000,0.000,0
1512340101.336,832.360,814.265,837.295,830.715,0.000,0.000,0
1512340101.341,835.650,809.330,845.520,825.780,0.000,0.000,0
1512340101.345,837.295,817.555,852.100,837.295,0.000,0.000,0
1512340101.350,819.200,819.200,843.875,822.490,0.000,0.000,0
1512340101.354,824.135,817.555,842.230,825.780,0.000,0.000,0
1512340101.359,825.780,807.685,842.230,837.295,0.000,0.000,0
1512340101.363,835.650,796.170,840.585,825.780,0.000,0.000,0
1512340101.368,842.230,804.395,845.520,822.490,0.000,0.000,0
1512340101.372,832.360,809.330,840.585,810.975,0.000,0.000,0
1512340101.377,832.360,796.170,842.230,820.845,0.000,0.000,0
1512340101.381,820.845,822.490,840.585,810.975,0.000,0.000,0
1512340101.386,829.070,824.135,848.810,825.780,0.000,0.000,0
1512340101.390,829.070,819.200,848.810,829.070,0.000,0.000,0
1512340101.395,837.295,822.490,842.230,834.005,0.000,0.000,0
1512340101.400,830.715,814.265,840.585,815.910,0.000,0.000,0
1512340101.404,832.360,812.620,840.585,832.360,0.000,0.000,0
1512340101.409,825.780,817.555,843.875,830.715,0.000,0.000,0
1512340101.413,835.650,806.040,843.875,847.165,0.000,0.000,0
1512340101.418,845.520,807.685,853.745,866.905,0.000,0.000,0
1512340101.422,834.005,819.200,843.875,834.005,0.000,0.000,0
1512340101.427,838.940,814.265,840.585,830.715,0.000,0.000,0
1512340101.431,838.940,820.845,848.810,830.715,0.000,0.000,0
1512340101.436,834.005,814.265,845.520,815.910,0.000,0.000,0
1512340101.440,834.005,824.135,848.810,825.780,0.000,0.000,0
1512340101.445,830.715,807.685,848.810,829.070,0.000,0.000,0
1512340101.449,824.135,812.620,842.230,814.265,0.000,0.000,0
1512340101.454,835.650,809.330,843.875,824.135,0.000,0.000,0
1512340101.458,837.295,810.975,845.520,830.715,0.000,0.000,0
1512340101.463,827.425,817.555,847.165,817.555,0.000,0.000,0
1512340101.467,825.780,819.200,840.585,834.005,0.000,0.000,0
1512340101.472,834.005,812.620,847.165,838.940,0.000,0.000,0
1512340101.477,829.070,819.200,847.165,825.780,0.000,0.000,0
1512340101.481,829.070,824.135,843.875,820.845,0.000,0.000,0
1512340101.486,835.650,815.910,845.520,827.425,0.000,0.000,0
1512340101.490,835.650,820.845,847.165,832.360,0.000,0.000,0
1512340101.495,840.585,827.425,845.520,852.100,0.000,0.000,0
1512340101.499,845.520,819.200,852.100,852.100,0.000,0.000,0
1512340101.504,830.715,827.425,843.875,825.780,0.000,0.000,0
1512340101.508,840.585,810.975,843.875,832.360,0.000,0.000,0
1512340101.513,832.360,820.845,845.520,834.005,0.000,0.000,0
1512340101.517,827.425,820.845,840.585,824.135,0.000,0.000,0
1512340101.522,832.360,815.910,842.230,830.715,0.000,0.000,0
1512340101.526,825.780,834.005,840.585,824.135,0.000,0.000,0
1512340101.531,843.875,806.040,842.230,834.005,0.000,0.000,0
1512340101.535,838.940,810.975,845.520,838.940,0.000,0.000,0
1512340101.540,829.070,822.490,843.875,830.715,0.000,0.000,0
1512340101.544,832.360,810.975,845.520,819.200,0.000,0.000,0
1512340101.549,817.555,825.780,845.520,817.555,0.000,0.000,0
1512340101.554,824.135,806.040,845.520,834.005,0.000,0.000,0
1512340101.558,825.780,815.910,852.100,822.490,0.000,0.000,0
1512340101.563,824.135,809.330,848.810,824.135,0.000,0.000,0
1512340101.567,825.780,817.555,845.520,825.780,0.000,0.000,0
1512340101.572,834.005,827.425,852.100,834.005,0.000,0.000,0
1512340101.576,820.845,820.845,840.585,827.425,0.000,0.000,0
1512340101.581,832.360,812.620,840.585,845.520,0.000,0.000,0
1512340101.585,829.070,810.975,843.875,822.490,0.000,0.000,0
1512340101.590,830.715,814.265,840.585,807.685,0.000,0.000,0
1512340101.594,842.230,812.620,847.165,819.200,0.000,0.000,0
1512340101.599,829.070,819.200,842.230,799.460,0.000,0.000,0
1512340101.603,832.360,810.975,843.875,819.200,0.000,0.000,0
1512340101.608,830.715,809.330,847.165,832.360,0.000,0.000,0
1512340101.612,830.715,817.555,850.455,824.135,0.000,0.000,0
1512340101.617,827.425,829.070,847.165,824.135,0.000,0.000,0
1512340101.621,829.070,820.845,843.875,832.360,0.000,0.000,0
1512340101.626,829.070,830.715,842.230,827.425,0.000,0.000,0
1512340101.630,837.295,819.200,845.520,857.035,0.000,0.000,0
1512340101.635,845.520,806.040,855.390,858.680,0.000,0.000,0
1512340101.640,835.650,817.555,852.100,834.005,0.000,0.000,0
1512340101.644,842.230,812.620,855.390,848.810,0.000,0.000,0
1512340101.649,830.715,810.975,855.390,834.005,0.000,0.000,0
1512340101.653,820.845,824.135,852.100,825.780,0.000,0.000,0
1512340101.658,835.650,812.620,853.745,840.585,0.000,0.000,0
1512340101.662,822.490,814.265,847.165,810.975,0.000,0.000,0
1512340101.667,829.070,829.070,843.875,830.715,0.000,0.000,0
1512340101.671,842.230,814.265,848.810,835.650,0.000,0.000,0
1512340101.676,835.650,824.135,847.165,832.360,0.000,0.000,0
1512340101.680,829.070,822.490,847.165,834.005,0.000,0.000,0
1512340101.685,824.135,822.490,847.165,825.780,0.000,0.000,0
1512340101.689,819.200,810.975,848.810,838.940,0.000,0.000,0
1512340101.694,824.135,817.555,852.100,835.650,0.000,0.000,0
1512340101.698,834.005,829.070,850.455,822.490,0.000,0.000,0
1512340101.703,842.230,824.135,847.165,834.005,0.000,0.000,0
1512340101.707,822.490,827.425,847.165,829.070,0.000,0.000,0
1512340101.712,829.070,814.265,850.455,845.520,0.000,0.000,0
1512340101.717,834.005,804.395,857.035,855.390,0.000,0.000,0
1512340101.721,817.555,817.555,850.455,832.360,0.000,0.000,0
1512340101.726,829.070,815.910,852.100,843.875,0.000,0.000,0
1512340101.730,829.070,804.395,852.100,838.940,0.000,0.000,0
1512340101.735,824.135,807.685,853.745,817.555,0.000,0.000,0
1512340101.739,820.845,812.620,852.100,792.881,0.000,0.000,0
1512340101.744,817.555,824.135,845.520,797.815,0.000,0.000,0
1512340101.748,820.845,822.490,843.875,824.135,0.000,0.000,0
1512340101.753,834.005,815.910,843.875,847.165,0.000,0.000,0
1512340101.757,842.230,810.975,850.455,857.035,0.000,0.000,0
1512340101.762,834.005,806.040,857.035,848.810,0.000,0.000,0
1512340101.766,837.295,815.910,853.745,832.360,0.000,0.000,0
1512340101.771,834.005,815.910,853.745,825.780,0.000,0.000,0
1512340101.775,832.360,817.555,845.520,819.200,0.000,0.000,0
1512340101.780,835.650,815.910,845.520,827.425,0.000,0.000,0
1512340101.784,829.070,825.780,845.520,830.715,0.000,0.000,0
1512340101.789,835.650,820.845,848.810,842.230,0.000,0.000,0
1512340101.794,834.005,817.555,847.165,848.810,0.000,0.000,0
1512340101.798,837.295,814.265,845.520,845.520,0.000,0.000,0
1512340101.803,827.425,815.910,847.165,830.715,0.000,0.000,0
1512340101.807,832.360,801.105,845.520,855.390,0.000,0.000,0
1512340101.812,835.650,812.620,847.165,822.490,0.000,0.000,0
1512340101.816,832.360,832.360,847.165,827.425,0.000,0.000,0
1512340101.821,838.940,817.555,848.810,845.520,0.000,0.000,0
1512340101.825,825.780,830.715,843.875,834.005,0.000,0.000,0
1512340101.830,838.940,815.910,847.165,855.390,0.000,0.000,0
1512340101.834,850.455,801.105,852.100,850.455,0.000,0.000,0
1512340101.839,835.650,814.265,847.165,840.585,0.000,0.000,0
1512340101.843,838.940,807.685,845.520,834.005,0.000,0.000,0
1512340101.848,824.135,819.200,842.230,814.265,0.000,0.000,0
1512340101.852,827.425,809.330,842.230,830.715,0.000,0.000,0
1512340101.857,832.360,812.620,848.810,829.070,0.000,0.000,0
1512340101.861,832.360,807.685,847.165,837.295,0.000,0.000,0
1512340101.866,832.360,796.170,847.165,838.940,0.000,0.000,0
1512340101.871,835.650,814.265,840.585,822.490,0.000,0.000,0
1512340101.875,842.230,802.750,847.165,829.070,0.000,0.000,0
1512340101.880,837.295,822.490,845.520,814.265,0.000,0.000,0
1512340101.884,834.005,812.620,842.230,829.070,0.000,0.000,0
1512340101.889,834.005,810.975,847.165,834.005,0.000,0.000,0
1512340101.893,837.295,809.330,853.745,837.295,0.000,0.000,0
1512340101.898,832.360,809.330,857.035,824.135,0.000,0.000,0
1512340101.902,835.650,820.845,852.100,825.780,0.000,0.000,0
1512340101.907,838.940,815.910,850.455,825.780,0.000,0.000,0
1512340101.911,842.230,825.780,848.810,837.295,0.000,0.000,0
1512340101.916,842.230,819.200,848.810,830.715,0.000,0.000,0
1512340101.920,832.360,807.685,847.165,835.650,0.000,0.000,0
1512340101.925,824.135,819.200,837.295,827.425,0.000,0.000,0
1512340101.929,824.135,819.200,840.585,832.360,0.000,0.000,0
1512340101.934,830.715,804.395,847.165,845.520,0.000,0.000,0
1512340101.938,840.585,817.555,852.100,835.650,0.000,0.000,0
1512340101.943,840.585,809.330,853.745,845.520,0.000,0.000,0
1512340101.948,838.940,806.040,852.100,840.585,0.000,0.000,0
1512340101.952,835.650,814.265,852.100,827.425,0.000,0.000,0
1512340101.957,837.295,817.555,852.100,832.360,0.000,0.000,0
1512340101.961,834.005,810.975,848.810,837.295,0.000,0.000,0
1512340101.966,830.715,817.555,840.585,829.070,0.000,0.000,0
1512340101.970,842.230,809.330,845.520,838.940,0.000,0.000,0
1512340101.975,843.875,819.200,850.455,838.940,0.000,0.000,0
1512340101.979,843.875,824.135,848.810,822.490,0.000,0.000,0
1512340101.984,835.650,820.845,847.165,843.875,0.000,0.000,0
1512340101.988,835.650,809.330,843.875,847.165,0.000,0.000,0
1512340101.993,837.295,804.395,842.230,832.360,0.000,0.000,0
1512340101.997,843.875,819.200,848.810,835.650,0.000,0.000,0
1512340102.002,837.295,827.425,853.745,835.650,0.000,0.000,0
1512340102.006,827.425,817.555,848.810,834.005,0.000,0.000,0
1512340102.011,835.650,807.685,842.230,848.810,0.000,0.000,0
1512340102.015,827.425,796.170,847.165,838.940,0.000,0.000,0
1512340102.020,825.780,829.070,842.230,817.555,0.000,0.000,0
1512340102.025,832.360,829.070,842.230,835.650,0.000,0.000,0
1512340102.029,834.005,820.845,845.520,848.810,0.000,0.000,0
1512340102.034,845.520,806.040,848.810,850.455,0.000,0.000,0
1512340102.038,840.585,804.395,848.810,835.650,0.000,0.000,0
1512340102.043,832.360,809.330,848.810,822.490,0.000,0.000,0
1512340102.047,820.845,819.200,842.230,815.910,0.000,0.000,0
1512340102.052,837.295,812.620,843.875,838.940,0.000,0.000,0
1512340102.056,838.940,806.040,845.520,838.940,0.000,0.000,0
1512340102.061,835.650,810.975,847.165,827.425,0.000,0.000,0
1512340102.065,830.715,822.490,847.165,829.070,0.000,0.000,0
1512340102.070,835.650,812.620,850.455,843.875,0.000,0.000,0
1512340102.074,848.810,814.265,855.390,843.875,0.000,0.000,0
1512340102.079,843.875,822.490,847.165,838.940,0.000,0.000,0
1512340102.083,827.425,825.780,842.230,817.555,0.000,0.000,0
1512340102.088,825.780,819.200,842.230,825.780,0.000,0.000,0
1512340102.092,827.425,822.490,847.165,825.780,0.000,0.000,0
1512340102.097,842.230,807.685,847.165,835.650,0.000,0.000,0
1512340102.102,837.295,817.555,842.230,810.975,0.000,0.000,0
1512340102.106,824.135,827.425,840.585,812.620,0.000,0.000,0
1512340102.111,832.360,815.910,843.875,815.910,0.000,0.000,0
1512340102.115,827.425,820.845,838.940,815.910,0.000,0.000,0
1512340102.120,830.715,807.685,840.585,829.070,0.000,0.000,0
1512340102.124,827.425,822.490,838.940,819.200,0.000,0.000,0
1512340102.129,827.425,810.975,843.875,843.875,0.000,0.000,0
1512340102.133,834.005,819.200,842.230,825.780,0.000,0.000,0
1512340102.138,838.940,815.910,842.230,838.940,0.000,0.000,0
1512340102.142,838.940,812.620,843.875,825.780,0.000,0.000,0
1512340102.147,827.425,819.200,842.230,822.490,0.000,0.000,0
1512340102.151,845.520,812.620,850.455,842.230,0.000,0.000,0
1512340102.156,838.940,819.200,843.875,829.070,0.000,0.000,0
1512340102.160,837.295,812.620,842.230,835.650,0.000,0.000,0
1512340102.165,838.940,802.750,848.810,827.425,0.000,0.000,0
1512340102.169,825.780,817.555,842.230,809.330,0.000,0.000,0
1512340102.174,837.295,817.555,838.940,824.135,0.000,0.000,0
1512340102.179,827.425,822.490,842.230,822.490,0.000,0.000,0
1512340102.183,832.360,827.425,842.230,822.490,0.000,0.000,0
1512340102.188,838.940,807.685,845.520,834.005,0.000,0.000,0
1512340102.192,838.940,807.685,843.875,827.425,0.000,0.000,0
1512340102.197,838.940,814.265,840.585,827.425,0.000,0.000,0
1512340102.201,838.940,812.620,840.585,845.520,0.000,0.000,0
1512340102.206,830.715,819.200,843.875,829.070,0.000,0.000,0
1512340102.210,843.875,812.620,847.165,834.005,0.000,0.000,0
1512340102.215,835.650,814.265,845.520,837.295,0.000,0.000,0
1512340102.219,820.845,832.360,840.585,820.845,0.000,0.000,0
1512340102.224,834.005,817.555,843.875,835.650,0.000,0.000,0
1512340102.228,837.295,812.620,843.875,835.650,0.000,0.000,0
1512340102.233,835.650,817.555,847.165,829.070,0.000,0.000,0
1512340102.237,832.360,825.780,850.455,829.070,0.000,0.000,0
1512340102.242,825.780,812.620,842.230,825.780,0.000,0.000,0
1512340102.246,822.490,820.845,838.940,820.845,0.000,0.000,0
1512340102.251,838.940,815.910,840.585,827.425,0.000,0.000,0
1512340102.255,834.005,814.265,843.875,822.490,0.000,0.000,0
1512340102.260,829.070,827.425,848.810,824.135,0.000,0.000,0
1512340102.265,832.360,825.780,842.230,830.715,0.000,0.000,0
1512340102.269,835.650,809.330,843.875,837.295,0.000,0.000,0
1512340102.274,834.005,812.620,840.585,809.330,0.000,0.000,0
1512340102.278,830.715,827.425,840.585,822.490,0.000,0.000,0
1512340102.283,829.070,812.620,842.230,820.845,0.000,0.000,0
1512340102.287,832.360,807.685,840.585,825.780,0.000,0.000,0
1512340102.292,830.715,825.780,842.230,832.360,0.000,0.000,0
1512340102.296,838.940,824.135,842.230,819.200,0.000,0.000,0
1512340102.301,835.650,822.490,843.875,825.780,0.000,0.000,0
1512340102.305,837.295,827.425,843.875,835.650,0.000,0.000,0
1512340102.310,843.875,814.265,843.875,842.230,0.000,0.000,0
1512340102.314,840.585,809.330,850.455,838.940,0.000,0.000,0
1512340102.319,827.425,830.715,843.875,827.425,0.000,0.000,0
1512340102.323,824.135,807.685,842.230,824.135,0.000,0.000,0
1512340102.328,819.200,810.975,837.295,819.200,0.000,0.000,0
1512340102.332,832.360,819.200,837.295,829.070,0.000,0.000,0
1512340102.337,835.650,820.845,843.875,819.200,0.000,0.000,0
1512340102.342,829.070,829.070,847.165,829.070,0.000,0.000,0
1512340102.346,835.650,809.330,850.455,843.875,0.000,0.000,0
1512340102.351,825.780,814.265,842.230,837.295,0.000,0.000,0
1512340102.355,838.940,807.685,845.520,848.810,0.000,0.000,0
1512340102.360,830.715,815.910,845.520,827.425,0.000,0.000,0
1512340102.364,830.715,824.135,847.165,822.490,0.000,0.000,0
1512340102.369,835.650,809.330,845.520,834.005,0.000,0.000,0
1512340102.373,835.650,819.200,845.520,832.360,0.000,0.000,0
1512340102.378,848.810,810.975,852.100,850.455,0.000,0.000,0
1512340102.382,838.940,806.040,853.745,845.520,0.000,0.000,0
1512340102.387,843.875,827.425,852.100,825.780,0.000,0.000,0
1512340102.391,843.875,825.780,848.810,812.620,0.000,0.000,0
1512340102.396,829.070,830.715,843.875,814.265,0.000,0.000,0
1512340102.400,829.070,820.845,845.520,815.910,0.000,0.000,0
1512340102.405,824.135,809.330,847.165,830.715,0.000,0.000,0
1512340102.409,825.780,809.330,848.810,832.360,0.000,0.000,0
1512340102.414,829.070,817.555,843.875,822.490,0.000,0.000,0
1512340102.419,838.940,812.620,845.520,825.780,0.000,0.000,0
1512340102.423,835.650,810.975,850.455,822.490,0.000,0.000,0
1512340102.428,824.135,820.845,852.100,824.135,0.000,0.000,0
1512340102.432,827.425,825.780,843.875,824.135,0.000,0.000,0
1512340102.437,830.715,819.200,845.520,829.070,0.000,0.000,0
1512340102.441,830.715,829.070,845.520,842.230,0.000,0.000,0
1512340102.446,847.165,810.975,848.810,850.455,0.000,0.000,0
1512340102.450,835.650,824.135,852.100,827.425,0.000,0.000,0
1512340102.455,832.360,830.715,843.875,834.005,0.000,0.000,0
1512340102.459,838.940,815.910,843.875,827.425,0.000,0.000,0
1512340102.464,829.070,829.070,848.810,822.490,0.000,0.000,0
1512340102.468,830.715,810.975,855.390,835.650,0.000,0.000,0
1512340102.473,824.135,802.750,848.810,827.425,0.000,0.000,0
1512340102.477,827.425,822.490,847.165,825.780,0.000,0.000,0
1512340102.482,829.070,822.490,840.585,832.360,0.000,0.000,0
1512340102.486,832.360,819.200,845.520,827.425,0.000,0.000,0
1512340102.491,832.360,820.845,847.165,822.490,0.000,0.000,0
1512340102.496,827.425,817.555,847.165,822.490,0.000,0.000,0
1512340102.500,827.425,814.265,847.165,832.360,0.000,0.000,0
1512340102.505,827.425,814.265,843.875,840.585,0.000,0.000,0
1512340102.509,827.425,814.265,842.230,824.135,0.000,0.000,0
1512340102.514,827.425,817.555,842.230,817.555,0.000,0.000,0
1512340102.518,830.715,807.685,847.165,822.490,0.000,0.000,0
1512340102.523,827.425,822.490,845.520,812.620,0.000,0.000,0
1512340102.527,834.005,807.685,850.455,843.875,0.000,0.000,0
1512340102.532,829.070,807.685,847.165,817.555,0.000,0.000,0
1512340102.536,825.780,830.715,847.165,820.845,0.000,0.000,0
1512340102.541,829.070,810.975,843.875,829.070,0.000,0.000,0
1512340102.545,820.845,825.780,837.295,819.200,0.000,0.000,0
1512340102.550,827.425,814.265,837.295,825.780,0.000,0.000,0
1512340102.554,834.005,810.975,838.940,812.620,0.000,0.000,0
1512340102.559,834.005,824.135,845.520,822.490,0.000,0.000,0
1512340102.563,824.135,819.200,842.230,822.490,0.000,0.000,0
1512340102.568,825.780,812.620,845.520,837.295,0.000,0.000,0
1512340102.573,827.425,824.135,843.875,832.360,0.000,0.000,0
1512340102.577,827.425,822.490,845.520,822.490,0.000,0.000,0
1512340102.582,829.070,829.070,843.875,825.780,0.000,0.000,0
1512340102.586,834.005,824.135,843.875,840.585,0.000,0.000,0
1512340102.591,825.780,814.265,842.230,835.650,0.000,0.000,0
1512340102.595,837.295,796.170,850.455,840.585,0.000,0.000,0
1512340102.600,843.875,804.395,852.100,835.650,0.000,0.000,0
1512340102.604,825.780,822.490,847.165,822.490,0.000,0.000,0
1512340102.609,824.135,827.425,845.520,819.200,0.000,0.000,0
1512340102.613,827.425,822.490,845.520,832.360,0.000,0.000,0
1512340102.618,829.070,817.555,845.520,838.940,0.000,0.000,0
1512340102.622,827.425,807.685,842.230,835.650,0.000,0.000,0
1512340102.627,832.360,812.620,838.940,827.425,0.000,0.000,0
1512340102.631,827.425,825.780,838.940,814.265,0.000,0.000,0
1512340102.636,822.490,815.910,838.940,817.555,0.000,0.000,0
1512340102.640,815.910,814.265,843.875,829.070,0.000,0.000,0
1512340102.645,829.070,807.685,847.165,845.520,0.000,0.000,0
1512340102.650,832.360,810.975,843.875,840.585,0.000,0.000,0
1512340102.654,842.230,817.555,845.520,837.295,0.000,0.000,0
1512340102.659,835.650,812.620,850.455,827.425,0.000,0.000,0
1512340102.663,820.845,820.845,847.165,809.330,0.000,0.000,0
1512340102.668,824.135,810.975,848.810,827.425,0.000,0.000,0
1512340102.672,822.490,819.200,847.165,827.425,0.000,0.000,0
1512340102.677,838.940,812.620,843.875,852.100,0.000,0.000,0
1512340102.681,843.875,807.685,845.520,835.650,0.000,0.000,0
1512340102.686,837.295,815.910,843.875,814.265,0.000,0.000,0
1512340102.690,835.650,817.555,850.455,825.780,0.000,0.000,0
1512340102.695,829.070,824.135,848.810,814.265,0.000,0.000,0
1512340102.699,832.360,825.780,848.810,837.295,0.000,0.000,0
1512340102.704,834.005,812.620,843.875,838.940,0.000,0.000,0
1512340102.708,829.070,815.910,842.230,829.070,0.000,0.000,0
1512340102.713,827.425,819.200,843.875,824.135,0.000,0.000,0
1512340102.717,832.360,815.910,843.875,832.360,0.000,0.000,0
1512340102.722,838.940,817.555,847.165,827.425,0.000,0.000,0
1512340102.727,842.230,807.685,848.810,832.360,0.000,0.000,0
1512340102.731,835.650,817.555,842.230,825.780,0.000,0.000,0
1512340102.736,838.940,817.555,845.520,837.295,0.000,0.000,0
1512340102.740,834.005,822.490,848.810,843.875,0.000,0.000,0
1512340102.745,842.230,810.975,848.810,845.520,0.000,0.000,0
1512340102.749,837.295,819.200,843.875,830.715,0.000,0.000,0
1512340102.754,817.555,827.425,840.585,820.845,0.000,0.000,0
1512340102.758,832.360,824.135,842.230,834.005,0.000,0.000,0
1512340102.763,832.360,810.975,845.520,852.100,0.000,0.000,0
1512340102.767,837.295,797.815,850.455,838.940,0.000,0.000,0
1512340102.772,838.940,810.975,848.810,835.650,0.000,0.000,0
1512340102.776,830.715,814.265,848.810,829.070,0.000,0.000,0
1512340102.781,829.070,829.070,847.165,830.715,0.000,0.000,0
1512340102.785,838.940,827.425,848.810,838.940,0.000,0.000,0
1512340102.790,843.875,819.200,850.455,832.360,0.000,0.000,0
1512340102.794,842.230,817.555,855.390,827.425,0.000,0.000,0
1512340102.799,838.940,810.975,850.455,819.200,0.000,0.000,0
1512340102.804,837.295,824.135,847.165,807.685,0.000,0.000,0
1512340102.808,840.585,830.715,838.940,806.040,0.000,0.000,0
1512340102.813,832.360,822.490,842.230,819.200,0.000,0.000,0
1512340102.817,829.070,812.620,845.520,829.070,0.000,0.000,0
1512340102.822,830.715,810.975,848.810,843.875,0.000,0.000,0
1512340102.826,838.940,824.135,850.455,858.680,0.000,0.000,0
1512340102.831,838.940,827.425,847.165,842.230,0.000,0.000,0
1512340102.835,840.585,838.940,845.520,834.005,0.000,0.000,0
1512340102.840,848.810,817.555,852.100,837.295,0.000,0.000,0
1512340102.844,837.295,827.425,845.520,822.490,0.000,0.000,0
1512340102.849,845.520,824.135,843.875,847.165,0.000,0.000,0
1512340102.853,834.005,829.070,843.875,843.875,0.000,0.000,0
1512340102.858,835.650,819.200,842.230,852.100,0.000,0.000,0
1512340102.862,837.295,812.620,852.100,857.035,0.000,0.000,0
1512340102.867,834.005,812.620,850.455,834.005,0.000,0.000,0
1512340102.871,848.810,814.265,852.100,850.455,0.000,0.000,0
1512340102.876,843.875,835.650,850.455,832.360,0.000,0.000,0
1512340102.880,843.875,830.715,845.520,837.295,0.000,0.000,0
1512340102.885,853.745,824.135,843.875,842.230,0.000,0.000,0
1512340102.890,852.100,822.490,847.165,850.455,0.000,0.000,0
1512340102.894,842.230,807.685,850.455,845.520,0.000,0.000,0
1512340102.899,834.005,819.200,850.455,829.070,0.000,0.000,0
1512340102.903,819.200,815.910,848.810,824.135,0.000,0.000,0
1512340102.908,819.200,807.685,845.520,819.200,0.000,0.000,0
1512340102.912,819.200,820.845,843.875,817.555,0.000,0.000,0
1512340102.917,830.715,804.395,853.745,845.520,0.000,0.000,0
1512340102.921,832.360,809.330,848.810,822.490,0.000,0.000,0
1512340102.926,832.360,810.975,845.520,830.715,0.000,0.000,0
1512340102.930,832.360,812.620,848.810,829.070,0.000,0.000,0
1512340102.935,830.715,806.040,847.165,832.360,0.000,0.000,0
1512340102.939,824.135,806.040,848.810,829.070,0.000,0.000,0
1512340102.944,832.360,815.910,842.230,830.715,0.000,0.000,0
1512340102.948,835.650,815.910,843.875,832.360,0.000,0.000,0
1512340102.953,837.295,819.200,843.875,830.715,0.000,0.000,0
1512340102.957,837.295,817.555,847.165,845.520,0.000,0.000,0
1512340102.962,843.875,792.881,848.810,838.940,0.000,0.000,0
1512340102.967,832.360,810.975,842.230,817.555,0.000,0.000,0
1512340102.971,842.230,815.910,845.520,830.715,0.000,0.000,0
1512340102.976,842.230,812.620,843.875,825.780,0.000,0.000,0
1512340102.980,835.650,815.910,842.230,832.360,0.000,0.000,0
1512340102.985,835.650,802.750,845.520,840.585,0.000,0.000,0
1512340102.989,824.135,794.526,840.585,824.135,0.000,0.000,0
1512340102.994,820.845,807.685,840.585,822.490,0.000,0.000,0
1512340102.998,832.360,812.620,847.165,845.520,0.000,0.000,0
1512340103.003,837.295,804.395,843.875,845.520,0.000,0.000,0
1512340103.007,835.650,796.170,842.230,832.360,0.000,0.000,0
1512340103.012,837.295,812.620,843.875,829.070,0.000,0.000,0
1512340103.016,838.940,810.975,847.165,838.940,0.000,0.000,0
1512340103.021,837.295,814.265,848.810,834.005,0.000,0.000,0
1512340103.025,838.940,802.750,853.745,824.135,0.000,0.000,0
1512340103.030,840.585,799.460,850.455,797.815,0.000,0.000,0
1512340103.034,835.650,806.040,845.520,774.786,0.000,0.000,0
1512340103.039,830.715,817.555,848.810,774.786,0.000,0.000,0
1512340103.044,838.940,799.460,852.100,796.170,0.000,0.000,0
1512340103.048,820.845,787.946,847.165,792.881,0.000,0.000,0
1512340103.053,812.620,830.715,847.165,801.105,0.000,0.000,0
1512340103.057,825.780,840.585,845.520,832.360,0.000,0.000,0
1512340103.062,827.425,822.490,843.875,852.100,0.000,0.000,0
1512340103.066,830.715,815.910,842.230,853.745,0.000,0.000,0
1512340103.071,842.230,794.526,843.875,857.035,0.000,0.000,0
1512340103.075,824.135,807.685,838.940,838.940,0.000,0.000,0
1512340103.080,825.780,815.910,838.940,848.810,0.000,0.000,0
1512340103.084,842.230,799.460,847.165,861.970,0.000,0.000,0
1512340103.089,822.490,797.815,848.810,865.260,0.000,0.000,0
1512340103.093,825.780,802.750,842.230,861.970,0.000,0.000,0
1512340103.098,824.135,820.845,845.520,842.230,0.000,0.000,0
1512340103.102,820.845,822.490,842.230,842.230,0.000,0.000,0
1512340103.107,835.650,815.910,845.520,855.390,0.000,0.000,0
1512340103.111,832.360,814.265,847.165,857.035,0.000,0.000,0
1512340103.116,817.555,810.975,842.230,837.295,0.000,0.000,0
1512340103.121,822.490,809.330,840.585,835.650,0.000,0.000,0
1512340103.125,819.200,809.330,842.230,825.780,0.000,0.000,0
1512340103.130,832.360,819.200,842.230,830.715,0.000,0.000,0
1512340103.134,843.875,812.620,848.810,848.810,0.000,0.000,0
1512340103.139,822.490,807.685,840.585,829.070,0.000,0.000,0
1512340103.143,829.070,814.265,842.230,827.425,0.000,0.000,0
1512340103.148,827.425,817.555,843.875,838.940,0.000,0.000,0
1512340103.152,830.715,815.910,840.585,830.715,0.000,0.000,0
1512340103.157,837.295,825.780,845.520,830.715,0.000,0.000,0
1512340103.161,840.585,799.460,848.810,855.390,0.000,0.000,0
1512340103.166,825.780,806.040,843.875,837.295,0.000,0.000,0
1512340103.170,830.715,809.330,843.875,838.940,0.000,0.000,0
1512340103.175,827.425,812.620,845.520,829.070,0.000,0.000,0
1512340103.179,820.845,819.200,845.520,820.845,0.000,0.000,0
1512340103.184,837.295,802.750,847.165,835.650,0.000,0.000,0
1512340103.188,835.650,820.845,845.520,837.295,0.000,0.000,0
1512340103.193,845.520,809.330,850.455,847.165,0.000,0.000,0
1512340103.198,837.295,815.910,848.810,817.555,0.000,0.000,0
1512340103.202,832.360,817.555,847.165,825.780,0.000,0.000,0
1512340103.207,830.715,814.265,850.455,827.425,0.000,0.000,0
1512340103.211,837.295,832.360,847.165,827.425,0.000,0.000,0
1512340103.216,837.295,814.265,850.455,840.585,0.000,0.000,0
1512340103.220,830.715,802.750,845.520,832.360,0.000,0.000,0
1512340103.225,830.715,814.265,843.875,820.845,0.000,0.000,0
1512340103.229,822.490,820.845,843.875,832.360,0.000,0.000,0
1512340103.234,837.295,810.975,847.165,837.295,0.000,0.000,0
1512340103.238,834.005,822.490,847.165,825.780,0.000,0.000,0
1512340103.243,830.715,820.845,845.520,824.135,0.000,0.000,0
1512340103.247,832.360,819.200,847.165,832.360,0.000,0.000,0
1512340103.252,832.360,825.780,843.875,832.360,0.000,0.000,0
1512340103.256,837.295,810.975,845.520,848.810,0.000,0.000,0
1512340103.261,835.650,796.170,850.455,832.360,0.000,0.000,0
1512340103.265,835.650,809.330,847.165,806.040,0.000,0.000,0
1512340103.270,842.230,824.135,848.810,804.395,0.000,0.000,0
1512340103.275,847.165,820.845,848.810,809.330,0.000,0.000,0
1512340103.279,843.875,810.975,843.875,801.105,0.000,0.000,0
1512340103.284,832.360,829.070,845.520,810.975,0.000,0.000,0
1512340103.288,832.360,822.490,840.585,814.265,0.000,0.000,0
1512340103.293,829.070,832.360,840.585,817.555,0.000,0.000,0
1512340103.297,835.650,832.360,843.875,834.005,0.000,0.000,0
1512340103.302,830.715,810.975,838.940,837.295,0.000,0.000,0
1512340103.306,835.650,815.910,837.295,835.650,0.000,0.000,0
1512340103.311,835.650,829.070,835.650,829.070,0.000,0.000,0
1512340103.315,845.520,819.200,840.585,845.520,0.000,0.000,0
1512340103.320,845.520,819.200,847.165,838.940,0.000,0.000,0
1512340103.324,843.875,812.620,848.810,853.745,0.000,0.000,0
1512340103.329,845.520,807.685,845.520,847.165,0.000,0.000,0
1512340103.333,837.295,827.425,842.230,824.135,0.000,0.000,0
1512340103.338,835.650,829.070,845.520,822.490,0.000,0.000,0
1512340103.342,829.070,827.425,842.230,824.135,0.000,0.000,0
1512340103.347,827.425,829.070,842.230,832.360,0.000,0.000,0
1512340103.352,832.360,822.490,840.585,837.295,0.000,0.000,0
1512340103.356,825.780,814.265,842.230,837.295,0.000,0.000,0
1512340103.361,835.650,791.236,847.165,842.230,0.000,0.000,0
1512340103.365,835.650,810.975,845.520,835.650,0.000,0.000,0
1512340103.370,847.165,820.845,850.455,842.230,0.000,0.000,0
1512340103.374,840.585,815.910,843.875,829.070,0.000,0.000,0
1512340103.379,830.715,830.715,838.940,819.200,0.000,0.000,0
1512340103.383,840.585,814.265,848.810,834.005,0.000,0.000,0
1512340103.388,827.425,809.330,845.520,830.715,0.000,0.000,0
1512340103.392,829.070,812.620,847.165,820.845,0.000,0.000,0
1512340103.397,827.425,817.555,847.165,825.780,0.000,0.000,0
1512340103.401,829.070,806.040,843.875,830.715,0.000,0.000,0
1512340103.406,835.650,815.910,848.810,837.295,0.000,0.000,0
1512340103.410,838.940,802.750,850.455,837.295,0.000,0.000,0
1512340103.415,822.490,809.330,842.230,819.200,0.000,0.000,0
1512340103.419,824.135,817.555,845.520,834.005,0.000,0.000,0
1512340103.424,822.490,817.555,847.165,827.425,0.000,0.000,0
1512340103.429,829.070,829.070,845.520,835.650,0.000,0.000,0
1512340103.433,829.070,804.395,847.165,832.360,0.000,0.000,0
1512340103.438,827.425,807.685,843.875,822.490,0.000,0.000,0
1512340103.442,827.425,817.555,842.230,822.490,0.000,0.000,0
1512340103.447,830.715,817.555,848.810,842.230,0.000,0.000,0
1512340103.451,838.940,807.685,850.455,838.940,0.000,0.000,0
1512340103.456,834.005,807.685,842.230,825.780,0.000,0.000,0
1512340103.460,834.005,822.490,842.230,824.135,0.000,0.000,0
1512340103.465,830.715,815.910,845.520,824.135,0.000,0.000,0
1512340103.469,827.425,824.135,837.295,834.005,0.000,0.000,0
1512340103.474,838.940,810.975,847.165,842.230,0.000,0.000,0
1512340103.478,834.005,802.750,845.520,822.490,0.000,0.000,0
1512340103.483,817.555,825.780,838.940,807.685,0.000,0.000,0
1512340103.487,827.425,814.265,843.875,829.070,0.000,0.000,0
1512340103.492,834.005,802.750,847.165,855.390,0.000,0.000,0
1512340103.496,822.490,824.135,843.875,829.070,0.000,0.000,0
1512340103.501,837.295,812.620,848.810,835.650,0.000,0.000,0
1512340103.505,817.555,837.295,845.520,817.555,0.000,0.000,0
1512340103.510,827.425,837.295,845.520,835.650,0.000,0.000,0
1512340103.515,837.295,819.200,848.810,847.165,0.000,0.000,0
1512340103.519,822.490,810.975,845.520,824.135,0.000,0.000,0
1512340103.524,824.135,812.620,843.875,814.265,0.000,0.000,0
1512340103.528,817.555,815.910,838.940,815.910,0.000,0.000,0
1512340103.533,832.360,817.555,842.230,832.360,0.000,0.000,0
1512340103.537,835.650,824.135,840.585,840.585,0.000,0.000,0
1512340103.542,850.455,806.040,845.520,842.230,0.000,0.000,0
1512340103.546,842.230,815.910,845.520,819.200,0.000,0.000,0
1512340103.551,834.005,822.490,842.230,829.070,0.000,0.000,0
1512340103.555,834.005,804.395,842.230,822.490,0.000,0.000,0
1512340103.560,824.135,829.070,837.295,822.490,0.000,0.000,0
1512340103.564,835.650,822.490,845.520,830.715,0.000,0.000,0
1512340103.569,834.005,840.585,845.520,822.490,0.000,0.000,0
1512340103.573,848.810,832.360,848.810,843.875,0.000,0.000,0
1512340103.578,850.455,822.490,853.745,843.875,0.000,0.000,0
1512340103.582,847.165,824.135,842.230,842.230,0.000,0.000,0
1512340103.587,843.875,815.910,845.520,838.940,0.000,0.000,0
1512340103.592,832.360,827.425,838.940,814.265,0.000,0.000,0
1512340103.596,835.650,804.395,843.875,829.070,0.000,0.000,0
1512340103.601,834.005,809.330,852.100,829.070,0.000,0.000,0
1512340103.605,835.650,825.780,852.100,825.780,0.000,0.000,0
1512340103.610,832.360,838.940,850.455,824.135,0.000,0.000,0
1512340103.614,837.295,827.425,847.165,830.715,0.000,0.000,0
1512340103.619,840.585,827.425,845.520,820.845,0.000,0.000,0
1512340103.623,842.230,815.910,847.165,843.875,0.000,0.000,0
1512340103.628,838.940,809.330,850.455,834.005,0.000,0.000,0
1512340103.632,827.425,827.425,848.810,820.845,0.000,0.000,0
1512340103.637,834.005,815.910,843.875,835.650,0.000,0.000,0
1512340103.641,822.490,820.845,850.455,834.005,0.000,0.000,0
1512340103.646,834.005,814.265,852.100,840.585,0.000,0.000,0
1512340103.650,840.585,819.200,850.455,835.650,0.000,0.000,0
1512340103.655,835.650,820.845,850.455,820.845,0.000,0.000,0
1512340103.659,835.650,832.360,845.520,819.200,0.000,0.000,0
1512340103.664,834.005,835.650,847.165,834.005,0.000,0.000,0
1512340103.669,843.875,829.070,842.230,843.875,0.000,0.000,0
1512340103.673,853.745,822.490,842.230,850.455,0.000,0.000,0
1512340103.678,853.745,812.620,848.810,860.325,0.000,0.000,0
1512340103.682,832.360,814.265,845.520,842.230,0.000,0.000,0
1512340103.687,837.295,806.040,848.810,850.455,0.000,0.000,0
1512340103.691,840.585,812.620,848.810,852.100,0.000,0.000,0
1512340103.696,840.585,815.910,843.875,837.295,0.000,0.000,0
1512340103.700,838.940,820.845,845.520,827.425,0.000,0.000,0
1512340103.705,838.940,822.490,850.455,824.135,0.000,0.000,0
1512340103.709,840.585,829.070,845.520,829.070,0.000,0.000,0
1512340103.714,853.745,817.555,850.455,848.810,0.000,0.000,0
1512340103.718,855.390,824.135,843.875,830.715,0.000,0.000,0
1512340103.723,843.875,824.135,842.230,834.005,0.000,0.000,0
1512340103.727,845.520,829.070,838.940,829.070,0.000,0.000,0
1512340103.732,847.165,817.555,847.165,843.875,0.000,0.000,0
1512340103.736,825.780,807.685,852.100,830.715,0.000,0.000,0
1512340103.741,817.555,812.620,845.520,814.265,0.000,0.000,0
1512340103.746,825.780,812.620,852.100,827.425,0.000,0.000,0
1512340103.750,829.070,815.910,853.745,829.070,0.000,0.000,0
1512340103.755,837.295,815.910,857.035,847.165,0.000,0.000,0
1512340103.759,829.070,814.265,857.035,837.295,0.000,0.000,0
1512340103.764,817.555,814.265,853.745,830.715,0.000,0.000,0
1512340103.768,822.490,817.555,852.100,838.940,0.000,0.000,0
1512340103.773,825.780,810.975,853.745,852.100,0.000,0.000,0
1512340103.777,830.715,804.395,855.390,837.295,0.000,0.000,0
1512340103.782,817.555,829.070,850.455,814.265,0.000,0.000,0
1512340103.786,822.490,822.490,843.875,824.135,0.000,0.000,0
1512340103.791,832.360,812.620,843.875,837.295,0.000,0.000,0
1512340103.795,848.810,806.040,852.100,853.745,0.000,0.000,0
1512340103.800,838.940,814.265,850.455,842.230,0.000,0.000,0
1512340103.804,835.650,817.555,855.390,832.360,0.000,0.000,0
1512340103.809,829.070,824.135,852.100,819.200,0.000,0.000,0
1512340103.813,834.005,827.425,852.100,834.005,0.000,0.000,0
1512340103.818,838.940,806.040,850.455,830.715,0.000,0.000,0
1512340103.823,840.585,810.975,850.455,824.135,0.000,0.000,0
1512340103.827,832.360,799.460,850.455,822.490,0.000,0.000,0
1512340103.832,819.200,799.460,848.810,809.330,0.000,0.000,0
1512340103.836,822.490,827.425,848.810,812.620,0.000,0.000,0
1512340103.841,834.005,806.040,850.455,837.295,0.000,0.000,0
1512340103.845,829.070,814.265,847.165,827.425,0.000,0.000,0
1512340103.850,832.360,817.555,845.520,840.585,0.000,0.000,0
1512340103.854,838.940,814.265,855.390,832.360,0.000,0.000,0
1512340103.859,835.650,820.845,853.745,832.360,0.000,0.000,0
1512340103.863,832.360,817.555,850.455,840.585,0.000,0.000,0
1512340103.868,822.490,815.910,843.875,837.295,0.000,0.000,0
1512340103.872,822.490,809.330,847.165,837.295,0.000,0.000,0
1512340103.877,824.135,834.005,847.165,822.490,0.000,0.000,0
1512340103.881,843.875,819.200,853.745,847.165,0.000,0.000,0
1512340103.886,847.165,825.780,850.455,852.100,0.000,0.000,0
1512340103.890,842.230,827.425,842.230,829.070,0.000,0.000,0
1512340103.895,824.135,815.910,847.165,834.005,0.000,0.000,0
1512340103.900,817.555,804.395,852.100,830.715,0.000,0.000,0
1512340103.904,830.715,820.845,853.745,852.100,0.000,0.000,0
1512340103.909,830.715,812.620,855.390,848.810,0.000,0.000,0
1512340103.913,835.650,814.265,853.745,832.360,0.000,0.000,0
1512340103.918,837.295,814.265,850.455,832.360,0.000,0.000,0
1512340103.922,825.780,819.200,850.455,824.135,0.000,0.000,0
1512340103.927,834.005,829.070,852.100,840.585,0.000,0.000,0
1512340103.931,850.455,815.910,850.455,852.100,0.000,0.000,0
1512340103.936,842.230,820.845,850.455,842.230,0.000,0.000,0
1512340103.940,837.295,817.555,850.455,835.650,0.000,0.000,0
1512340103.945,838.940,814.265,850.455,837.295,0.000,0.000,0
1512340103.949,838.940,806.040,857.035,840.585,0.000,0.000,0
1512340103.954,834.005,806.040,848.810,835.650,0.000,0.000,0
1512340103.958,822.490,812.620,847.165,829.070,0.000,0.000,0
1512340103.963,822.490,820.845,842.230,834.005,0.000,0.000,0
1512340103.967,827.425,829.070,852.100,832.360,0.000,0.000,0
1512340103.972,834.005,815.910,853.745,837.295,0.000,0.000,0
1512340103.977,830.715,822.490,847.165,832.360,0.000,0.000,0
1512340103.981,825.780,820.845,847.165,819.200,0.000,0.000,0
1512340103.986,822.490,819.200,847.165,827.425,0.000,0.000,0
1512340103.990,827.425,801.105,850.455,842.230,0.000,0.000,0
1512340103.995,827.425,801.105,850.455,829.070,0.000,0.000,0
1512340103.999,812.620,820.845,845.520,810.975,0.000,0.000,0
1512340104.004,824.135,819.200,852.100,815.910,0.000,0.000,0
1512340104.008,834.005,822.490,852.100,842.230,0.000,0.000,0
1512340104.013,830.715,809.330,855.390,850.455,0.000,0.000,0
1512340104.017,832.360,807.685,847.165,835.650,0.000,0.000,0
1512340104.022,822.490,819.200,840.585,820.845,0.000,0.000,0
1512340104.026,819.200,814.265,840.585,820.845,0.000,0.000,0
1512340104.031,838.940,814.265,847.165,838.940,0.000,0.000,0
1512340104.035,832.360,799.460,847.165,835.650,0.000,0.000,0
1512340104.040,827.425,804.395,845.520,825.780,0.000,0.000,0
1512340104.044,832.360,819.200,843.875,820.845,0.000,0.000,0
1512340104.049,838.940,819.200,842.230,837.295,0.000,0.000,0
1512340104.054,838.940,825.780,842.230,842.230,0.000,0.000,0
1512340104.058,847.165,801.105,850.455,850.455,0.000,0.000,0
1512340104.063,835.650,809.330,847.165,820.845,0.000,0.000,0
1512340104.067,835.650,819.200,850.455,832.360,0.000,0.000,0
1512340104.072,847.165,820.845,853.745,834.005,0.000,0.000,0
1512340104.076,837.295,827.425,840.585,832.360,0.000,0.000,0
1512340104.081,842.230,804.395,842.230,845.520,0.000,0.000,0
1512340104.085,835.650,794.526,837.295,824.135,0.000,0.000,0
1512340104.090,837.295,815.910,843.875,829.070,0.000,0.000,0
1512340104.094,845.520,817.555,845.520,834.005,0.000,0.000,0
1512340104.099,847.165,814.265,847.165,832.360,0.000,0.000,0
1512340104.103,845.520,815.910,848.810,843.875,0.000,0.000,0
1512340104.108,840.585,812.620,848.810,835.650,0.000,0.000,0
1512340104.112,835.650,817.555,848.810,843.875,0.000,0.000,0
1512340104.117,834.005,807.685,848.810,842.230,0.000,0.000,0
1512340104.121,838.940,814.265,847.165,835.650,0.000,0.000,0
1512340104.126,840.585,822.490,848.810,850.455,0.000,0.000,0
1512340104.131,848.810,819.200,847.165,847.165,0.000,0.000,0
1512340104.135,830.715,829.070,842.230,837.295,0.000,0.000,0
1512340104.140,820.845,806.040,842.230,830.715,0.000,0.000,0
1512340104.144,819.200,801.105,842.230,804.395,0.000,0.000,0
1512340104.149,807.685,810.975,838.940,791.236,0.000,0.000,0
1512340104.153,809.330,819.200,835.650,784.656,0.000,0.000,0
1512340104.158,809.330,825.780,835.650,773.141,0.000,0.000,0
1512340104.162,792.881,825.780,830.715,779.721,0.000,0.000,0
1512340104.167,799.460,802.750,835.650,791.236,0.000,0.000,0
1512340104.171,802.750,814.265,835.650,799.460,0.000,0.000,0
1512340104.176,799.460,835.650,834.005,791.236,0.000,0.000,0
1512340104.180,817.555,829.070,835.650,809.330,0.000,0.000,0
1512340104.185,825.780,829.070,837.295,810.975,0.000,0.000,0
1512340104.189,827.425,820.845,832.360,809.330,0.000,0.000,0
1512340104.194,829.070,815.910,837.295,820.845,0.000,0.000,0
1512340104.198,815.910,824.135,837.295,815.910,0.000,0.000,0
1512340104.203,814.265,819.200,835.650,824.135,0.000,0.000,0
1512340104.207,830.715,801.105,847.165,835.650,0.000,0.000,0
1512340104.212,827.425,820.845,847.165,810.975,0.000,0.000,0
1512340104.217,819.200,824.135,835.650,804.395,0.000,0.000,0
1512340104.221,820.845,809.330,835.650,809.330,0.000,0.000,0
1512340104.226,810.975,824.135,832.360,810.975,0.000,0.000,0
1512340104.230,827.425,810.975,840.585,830.715,0.000,0.000,0
1512340104.235,837.295,817.555,845.520,825.780,0.000,0.000,0
1512340104.239,832.360,819.200,842.230,825.780,0.000,0.000,0
1512340104.244,834.005,817.555,838.940,825.780,0.000,0.000,0
1512340104.248,832.360,809.330,840.585,830.715,0.000,0.000,0
1512340104.253,835.650,814.265,845.520,834.005,0.000,0.000,0
1512340104.257,834.005,822.490,847.165,829.070,0.000,0.000,0
1512340104.262,838.940,812.620,843.875,838.940,0.000,0.000,0
1512340104.266,832.360,824.135,838.940,820.845,0.000,0.000,0
1512340104.271,840.585,819.200,843.875,837.295,0.000,0.000,0
1512340104.275,843.875,807.685,852.100,840.585,0.000,0.000,0
1512340104.280,829.070,815.910,845.520,806.040,0.000,0.000,0
1512340104.284,830.715,801.105,845.520,827.425,0.000,0.000,0
1512340104.289,840.585,792.881,847.165,830.715,0.000,0.000,0
1512340104.294,847.165,794.526,845.520,815.910,0.000,0.000,0
1512340104.298,835.650,801.105,847.165,802.750,0.000,0.000,0
1512340104.303,842.230,812.620,845.520,794.526,0.000,0.000,0
1512340104.307,837.295,799.460,845.520,787.946,0.000,0.000,0
1512340104.312,838.940,792.881,847.165,776.431,0.000,0.000,0
1512340104.316,852.100,817.555,848.810,784.656,0.000,0.000,0
1512340104.321,843.875,812.620,845.520,802.750,0.000,0.000,0
1512340104.325,837.295,817.555,842.230,824.135,0.000,0.000,0
1512340104.330,837.295,824.135,843.875,829.070,0.000,0.000,0
1512340104.334,838.940,820.845,848.810,835.650,0.000,0.000,0
1512340104.339,834.005,822.490,843.875,834.005,0.000,0.000,0
1512340104.343,825.780,825.780,843.875,848.810,0.000,0.000,0
1512340104.348,843.875,814.265,852.100,881.709,0.000,0.000,0
1512340104.352,835.650,819.200,847.165,857.035,0.000,0.000,0
1512340104.357,825.780,809.330,843.875,837.295,0.000,0.000,0
1512340104.361,834.005,809.330,840.585,829.070,0.000,0.000,0
1512340104.366,815.910,812.620,832.360,825.780,0.000,0.000,0
1512340104.371,814.265,827.425,835.650,820.845,0.000,0.000,0
1512340104.375,829.070,832.360,840.585,825.780,0.000,0.000,0
1512340104.380,834.005,820.845,842.230,830.715,0.000,0.000,0
1512340104.384,827.425,829.070,838.940,822.490,0.000,0.000,0
1512340104.389,842.230,814.265,842.230,847.165,0.000,0.000,0
1512340104.393,835.650,815.910,842.230,845.520,0.000,0.000,0
1512340104.398,835.650,822.490,838.940,832.360,0.000,0.000,0
1512340104.402,840.585,802.750,840.585,835.650,0.000,0.000,0
1512340104.407,829.070,825.780,838.940,815.910,0.000,0.000,0
1512340104.411,843.875,825.780,843.875,827.425,0.000,0.000,0
1512340104.416,847.165,815.910,850.455,842.230,0.000,0.000,0
1512340104.420,845.520,814.265,843.875,843.875,0.000,0.000,0
1512340104.425,842.230,806.040,843.875,830.715,0.000,0.000,0
1512340104.429,824.135,814.265,842.230,820.845,0.000,0.000,0
1512340104.434,824.135,814.265,838.940,799.460,0.000,0.000,0
1512340104.438,827.425,819.200,843.875,809.330,0.000,0.000,0
1512340104.443,829.070,824.135,843.875,824.135,0.000,0.000,0
1512340104.448,838.940,802.750,843.875,837.295,0.000,0.000,0
1512340104.452,843.875,817.555,847.165,834.005,0.000,0.000,0
1512340104.457,840.585,825.780,845.520,827.425,0.000,0.000,0
1512340104.461,838.940,817.555,842.230,829.070,0.000,0.000,0
1512340104.466,838.940,824.135,845.520,829.070,0.000,0.000,0
1512340104.470,838.940,817.555,847.165,822.490,0.000,0.000,0
1512340104.475,834.005,820.845,843.875,827.425,0.000,0.000,0
1512340104.479,838.940,822.490,843.875,830.715,0.000,0.000,0
1512340104.484,835.650,822.490,843.875,829.070,0.000,0.000,0
1512340104.488,843.875,810.975,850.455,843.875,0.000,0.000,0
1512340104.493,840.585,812.620,853.745,830.715,0.000,0.000,0
1512340104.497,842.230,810.975,852.100,830.715,0.000,0.000,0
1512340104.502,834.005,809.330,845.520,840.585,0.000,0.000,0
1512340104.506,840.585,799.460,845.520,838.940,0.000,0.000,0
1512340104.511,837.295,812.620,847.165,820.845,0.000,0.000,0
1512340104.515,832.360,820.845,847.165,817.555,0.000,0.000,0
1512340104.520,837.295,814.265,850.455,820.845,0.000,0.000,0
1512340104.525,829.070,822.490,842.230,815.910,0.000,0.000,0
1512340104.529,838.940,802.750,843.875,835.650,0.000,0.000,0
1512340104.534,829.070,809.330,845.520,827.425,0.000,0.000,0
1512340104.538,822.490,814.265,840.585,804.395,0.000,0.000,0
1512340104.543,820.845,807.685,843.875,812.620,0.000,0.000,0
1512340104.547,835.650,810.975,852.100,825.780,0.000,0.000,0
1512340104.552,837.295,807.685,852.100,830.715,0.000,0.000,0
1512340104.556,837.295,817.555,848.810,825.780,0.000,0.000,0
1512340104.561,832.360,822.490,848.810,835.650,0.000,0.000,0
1512340104.565,837.295,817.555,850.455,834.005,0.000,0.000,0
1512340104.570,843.875,807.685,853.745,847.165,0.000,0.000,0
1512340104.574,835.650,799.460,848.810,838.940,0.000,0.000,0
1512340104.579,820.845,814.265,835.650,817.555,0.000,0.000,0
1512340104.583,819.200,819.200,834.005,827.425,0.000,0.000,0
1512340104.588,835.650,825.780,838.940,837.295,0.000,0.000,0
1512340104.592,845.520,812.620,850.455,845.520,0.000,0.000,0
1512340104.597,843.875,807.685,850.455,842.230,0.000,0.000,0
1512340104.602,830.715,804.395,848.810,824.135,0.000,0.000,0
1512340104.606,832.360,806.040,848.810,829.070,0.000,0.000,0
1512340104.611,840.585,815.910,847.165,837.295,0.000,0.000,0
1512340104.615,838.940,810.975,848.810,835.650,0.000,0.000,0
1512340104.620,835.650,806.040,847.165,837.295,0.000,0.000,0
1512340104.624,830.715,809.330,842.230,822.490,0.000,0.000,0
1512340104.629,830.715,804.395,840.585,815.910,0.000,0.000,0
1512340104.633,838.940,815.910,843.875,835.650,0.000,0.000,0
1512340104.638,835.650,804.395,847.165,842.230,0.000,0.000,0
1512340104.642,845.520,804.395,852.100,827.425,0.000,0.000,0
1512340104.647,838.940,817.555,852.100,819.200,0.000,0.000,0
1512340104.651,845.520,802.750,847.165,822.490,0.000,0.000,0
1512340104.656,829.070,819.200,840.585,809.330,0.000,0.000,0
1512340104.660,834.005,806.040,843.875,842.230,0.000,0.000,0
1512340104.665,830.715,804.395,845.520,837.295,0.000,0.000,0
1512340104.669,834.005,810.975,845.520,829.070,0.000,0.000,0
1512340104.674,832.360,810.975,842.230,832.360,0.000,0.000,0
1512340104.679,832.360,807.685,840.585,834.005,0.000,0.000,0
1512340104.683,838.940,825.780,838.940,824.135,0.000,0.000,0
1512340104.688,853.745,810.975,848.810,843.875,0.000,0.000,0
1512340104.692,850.455,797.815,847.165,837.295,0.000,0.000,0
1512340104.697,835.650,812.620,843.875,843.875,0.000,0.000,0
1512340104.701,830.715,794.526,847.165,832.360,0.000,0.000,0
1512340104.706,819.200,815.910,843.875,812.620,0.000,0.000,0
1512340104.710,835.650,809.330,848.810,835.650,0.000,0.000,0
1512340104.715,843.875,802.750,850.455,824.135,0.000,0.000,0
1512340104.719,842.230,806.040,850.455,850.455,0.000,0.000,0
1512340104.724,843.875,806.040,852.100,834.005,0.000,0.000,0
1512340104.728,830.715,810.975,847.165,815.910,0.000,0.000,0
1512340104.733,842.230,810.975,842.230,822.490,0.000,0.000,0
1512340104.737,835.650,822.490,843.875,815.910,0.000,0.000,0
1512340104.742,838.940,822.490,845.520,834.005,0.000,0.000,0
1512340104.746,838.940,806.040,848.810,832.360,0.000,0.000,0
1512340104.751,835.650,804.395,847.165,832.360,0.000,0.000,0
1512340104.756,838.940,812.620,843.875,832.360,0.000,0.000,0
1512340104.760,837.295,814.265,847.165,838.940,0.000,0.000,0
1512340104.765,832.360,810.975,845.520,830.715,0.000,0.000,0
1512340104.769,835.650,814.265,847.165,825.780,0.000,0.000,0
1512340104.774,832.360,810.975,848.810,832.360,0.000,0.000,0
1512340104.778,843.875,806.040,852.100,843.875,0.000,0.000,0
1512340104.783,835.650,824.135,852.100,852.100,0.000,0.000,0
1512340104.787,860.325,806.040,855.390,860.325,0.000,0.000,0
1512340104.792,853.745,804.395,855.390,837.295,0.000,0.000,0
1512340104.796,834.005,819.200,840.585,814.265,0.000,0.000,0
1512340104.801,822.490,819.200,838.940,822.490,0.000,0.000,0
1512340104.805,815.910,802.750,838.940,835.650,0.000,0.000,0
1512340104.810,832.360,802.750,842.230,840.585,0.000,0.000,0
1512340104.814,838.940,802.750,848.810,835.650,0.000,0.000,0
1512340104.819,838.940,810.975,847.165,819.200,0.000,0.000,0
1512340104.823,837.295,820.845,843.875,819.200,0.000,0.000,0
1512340104.828,842.230,810.975,842.230,835.650,0.000,0.000,0
1512340104.832,843.875,806.040,845.520,834.005,0.000,0.000,0
1512340104.837,832.360,812.620,845.520,820.845,0.000,0.000,0
1512340104.842,834.005,807.685,843.875,817.555,0.000,0.000,0
1512340104.846,822.490,806.040,838.940,809.330,0.000,0.000,0
1512340104.851,829.070,820.845,845.520,817.555,0.000,0.000,0
1512340104.855,827.425,825.780,847.165,822.490,0.000,0.000,0
1512340104.860,819.200,822.490,845.520,824.135,0.000,0.000,0
1512340104.864,829.070,812.620,845.520,829.070,0.000,0.000,0
1512340104.869,830.715,809.330,845.520,847.165,0.000,0.000,0
1512340104.873,830.715,807.685,847.165,835.650,0.000,0.000,0
1512340104.878,834.005,834.005,848.810,835.650,0.000,0.000,0
1512340104.882,847.165,819.200,848.810,838.940,0.000,0.000,0
1512340104.887,853.745,822.490,843.875,829.070,0.000,0.000,0
1512340104.891,852.100,815.910,848.810,847.165,0.000,0.000,0
1512340104.896,832.360,814.265,853.745,834.005,0.000,0.000,0
1512340104.900,830.715,824.135,848.810,850.455,0.000,0.000,0
1512340104.905,830.715,802.750,853.745,852.100,0.000,0.000,0
1512340104.909,829.070,824.135,852.100,840.585,0.000,0.000,0
1512340104.914,835.650,814.265,855.390,850.455,0.000,0.000,0
1512340104.919,829.070,812.620,855.390,834.005,0.000,0.000,0
1512340104.923,830.715,822.490,850.455,832.360,0.000,0.000,0
1512340104.928,837.295,807.685,852.100,847.165,0.000,0.000,0
1512340104.932,827.425,809.330,850.455,840.585,0.000,0.000,0
1512340104.937,830.715,801.105,852.100,850.455,0.000,0.000,0
1512340104.941,832.360,812.620,850.455,822.490,0.000,0.000,0
1512340104.946,824.135,822.490,843.875,810.975,0.000,0.000,0
1512340104.950,834.005,809.330,845.520,830.715,0.000,0.000,0
1512340104.955,825.780,822.490,840.585,814.265,0.000,0.000,0
1512340104.959,830.715,815.910,847.165,840.585,0.000,0.000,0
1512340104.964,838.940,804.395,858.680,847.165,0.000,0.000,0
1512340104.968,817.555,817.555,848.810,829.070,0.000,0.000,0
1512340104.973,825.780,809.330,850.455,837.295,0.000,0.000,0
1512340104.977,819.200,812.620,843.875,820.845,0.000,0.000,0
1512340104.982,822.490,810.975,842.230,814.265,0.000,0.000,0
1512340104.986,820.845,817.555,842.230,814.265,0.000,0.000,0
1512340104.991,830.715,819.200,843.875,838.940,0.000,0.000,0
1512340104.996,829.070,815.910,845.520,825.780,0.000,0.000,0
1512340105.000,827.425,817.555,843.875,838.940,0.000,0.000,0
1512340105.005,845.520,797.815,850.455,848.810,0.000,0.000,0
1512340105.009,842.230,817.555,847.165,827.425,0.000,0.000,0
1512340105.014,840.585,829.070,847.165,832.360,0.000,0.000,0
1512340105.018,835.650,815.910,847.165,835.650,0.000,0.000,0
1512340105.023,822.490,822.490,842.230,829.070,0.000,0.000,0
1512340105.027,834.005,807.685,847.165,840.585,0.000,0.000,0
1512340105.032,838.940,807.685,852.100,842.230,0.000,0.000,0
1512340105.036,835.650,817.555,852.100,830.715,0.000,0.000,0
1512340105.041,830.715,812.620,842.230,838.940,0.000,0.000,0
1512340105.045,835.650,814.265,843.875,838.940,0.000,0.000,0
1512340105.050,842.230,819.200,845.520,832.360,0.000,0.000,0
1512340105.054,837.295,829.070,848.810,830.715,0.000,0.000,0
1512340105.059,842.230,819.200,852.100,838.940,0.000,0.000,0
1512340105.063,842.230,806.040,845.520,835.650,0.000,0.000,0
1512340105.068,840.585,807.685,848.810,845.520,0.000,0.000,0
1512340105.073,830.715,809.330,845.520,835.650,0.000,0.000,0
1512340105.077,835.650,806.040,847.165,835.650,0.000,0.000,0
1512340105.082,834.005,815.910,845.520,843.875,0.000,0.000,0
1512340105.086,838.940,812.620,843.875,845.520,0.000,0.000,0
1512340105.091,847.165,819.200,853.745,840.585,0.000,0.000,0
1512340105.095,829.070,838.940,845.520,817.555,0.000,0.000,0
1512340105.100,832.360,834.005,845.520,825.780,0.000,0.000,0
1512340105.104,842.230,815.910,850.455,842.230,0.000,0.000,0
1512340105.109,840.585,802.750,852.100,855.390,0.000,0.000,0
1512340105.113,834.005,807.685,847.165,838.940,0.000,0.000,0
1512340105.118,835.650,809.330,845.520,824.135,0.000,0.000,0
1512340105.122,820.845,810.975,840.585,817.555,0.000,0.000,0
1512340105.127,838.940,807.685,845.520,838.940,0.000,0.000,0
1512340105.131,835.650,810.975,848.810,850.455,0.000,0.000,0
1512340105.136,832.360,820.845,848.810,827.425,0.000,0.000,0
1512340105.140,830.715,824.135,848.810,829.070,0.000,0.000,0
1512340105.145,834.005,810.975,847.165,829.070,0.000,0.000,0
1512340105.150,843.875,809.330,847.165,835.650,0.000,0.000,0
1512340105.154,850.455,801.105,848.810,843.875,0.000,0.000,0
1512340105.159,830.715,812.620,847.165,820.845,0.000,0.000,0
1512340105.163,832.360,814.265,847.165,827.425,0.000,0.000,0
1512340105.168,834.005,807.685,843.875,824.135,0.000,0.000,0
1512340105.172,834.005,815.910,842.230,834.005,0.000,0.000,0
1512340105.177,842.230,806.040,842.230,834.005,0.000,0.000,0
1512340105.181,834.005,817.555,845.520,829.070,0.000,0.000,0
1512340105.186,837.295,814.265,847.165,829.070,0.000,0.000,0
1512340105.190,835.650,819.200,843.875,824.135,0.000,0.000,0
1512340105.195,837.295,820.845,845.520,835.650,0.000,0.000,0
1512340105.199,824.135,815.910,840.585,825.780,0.000,0.000,0
1512340105.204,834.005,802.750,842.230,847.165,0.000,0.000,0
1512340105.208,832.360,819.200,840.585,832.360,0.000,0.000,0
1512340105.213,838.940,814.265,840.585,830.715,0.000,0.000,0
1512340105.217,840.585,814.265,840.585,824.135,0.000,0.000,0
1512340105.222,834.005,822.490,838.940,812.620,0.000,0.000,0
1512340105.227,830.715,804.395,842.230,837.295,0.000,0.000,0
1512340105.231,834.005,819.200,848.810,835.650,0.000,0.000,0
1512340105.236,843.875,802.750,855.390,840.585,0.000,0.000,0
1512340105.240,840.585,802.750,850.455,825.780,0.000,0.000,0
1512340105.245,829.070,824.135,845.520,817.555,0.000,0.000,0
1512340105.249,830.715,815.910,848.810,832.360,0.000,0.000,0
1512340105.254,829.070,829.070,845.520,822.490,0.000,0.000,0
1512340105.258,838.940,804.395,852.100,838.940,0.000,0.000,0
1512340105.263,830.715,807.685,850.455,822.490,0.000,0.000,0
1512340105.267,830.715,824.135,848.810,825.780,0.000,0.000,0
1512340105.272,827.425,814.265,845.520,832.360,0.000,0.000,0
1512340105.276,827.425,822.490,845.520,834.005,0.000,0.000,0
1512340105.281,840.585,815.910,843.875,827.425,0.000,0.000,0
1512340105.285,838.940,815.910,843.875,824.135,0.000,0.000,0
1512340105.290,837.295,820.845,843.875,837.295,0.000,0.000,0
1512340105.294,847.165,824.135,838.940,837.295,0.000,0.000,0
1512340105.299,827.425,819.200,842.230,847.165,0.000,0.000,0
1512340105.304,840.585,810.975,848.810,842.230,0.000,0.000,0
1512340105.308,825.780,825.780,845.520,812.620,0.000,0.000,0
1512340105.313,827.425,822.490,843.875,820.845,0.000,0.000,0
1512340105.317,829.070,809.330,843.875,832.360,0.000,0.000,0
1512340105.322,822.490,812.620,845.520,842.230,0.000,0.000,0
1512340105.326,837.295,806.040,848.810,852.100,0.000,0.000,0
1512340105.331,832.360,812.620,848.810,832.360,0.000,0.000,0
1512340105.335,835.650,822.490,843.875,812.620,0.000,0.000,0
1512340105.340,838.940,802.750,843.875,824.135,0.000,0.000,0
1512340105.344,834.005,807.685,850.455,832.360,0.000,0.000,0
1512340105.349,830.715,814.265,853.745,835.650,0.000,0.000,0
1512340105.353,819.200,810.975,848.810,824.135,0.000,0.000,0
1512340105.358,820.845,817.555,847.165,819.200,0.000,0.000,0
1512340105.362,832.360,802.750,845.520,827.425,0.000,0.000,0
1512340105.367,837.295,809.330,848.810,847.165,0.000,0.000,0
1512340105.371,845.520,806.040,855.390,840.585,0.000,0.000,0
1512340105.376,829.070,810.975,848.810,825.780,0.000,0.000,0
1512340105.381,827.425,814.265,843.875,830.715,0.000,0.000,0
1512340105.385,832.360,807.685,847.165,824.135,0.000,0.000,0
1512340105.390,827.425,825.780,845.520,820.845,0.000,0.000,0
1512340105.394,840.585,807.685,848.810,827.425,0.000,0.000,0
1512340105.399,827.425,799.460,848.810,820.845,0.000,0.000,0
1512340105.403,820.845,814.265,847.165,815.910,0.000,0.000,0
1512340105.408,830.715,815.910,848.810,832.360,0.000,0.000,0
1512340105.412,825.780,825.780,843.875,830.715,0.000,0.000,0
1512340105.417,830.715,825.780,842.230,825.780,0.000,0.000,0
1512340105.421,840.585,809.330,847.165,853.745,0.000,0.000,0
1512340105.426,837.295,809.330,845.520,830.715,0.000,0.000,0
1512340105.430,843.875,809.330,848.810,832.360,0.000,0.000,0
1512340105.435,834.005,812.620,847.165,829.070,0.000,0.000,0
1512340105.439,834.005,824.135,847.165,832.360,0.000,0.000,0
1512340105.444,843.875,807.685,850.455,843.875,0.000,0.000,0
1512340105.448,835.650,812.620,848.810,837.295,0.000,0.000,0
1512340105.453,840.585,799.460,853.745,837.295,0.000,0.000,1
1512340105.457,832.360,822.490,852.100,819.200,0.000,0.000,0
1512340105.462,837.295,824.135,853.745,824.135,0.000,0.000,0
1512340105.467,838.940,814.265,852.100,835.650,0.000,0.000,0
1512340105.471,834.005,834.005,847.165,832.360,0.000,0.000,0
1512340105.476,834.005,814.265,853.745,838.940,0.000,0.000,0
1512340105.480,832.360,812.620,853.745,829.070,0.000,0.000,0
1512340105.485,827.425,809.330,847.165,829.070,0.000,0.000,0
1512340105.489,829.070,814.265,845.520,832.360,0.000,0.000,0
1512340105.494,832.360,814.265,853.745,837.295,0.000,0.000,0
1512340105.498,824.135,815.910,847.165,822.490,0.000,0.000,0
1512340105.503,824.135,822.490,843.875,819.200,0.000,0.000,0
1512340105.507,835.650,817.555,847.165,835.650,0.000,0.000,0
1512340105.512,827.425,815.910,843.875,827.425,0.000,0.000,0
1512340105.516,830.715,822.490,850.455,842.230,0.000,0.000,0
1512340105.521,834.005,807.685,853.745,837.295,0.000,0.000,0
1512340105.525,817.555,819.200,845.520,814.265,0.000,0.000,0
1512340105.530,829.070,824.135,842.230,825.780,0.000,0.000,0
1512340105.534,832.360,812.620,847.165,842.230,0.000,0.000,0
1512340105.539,830.715,804.395,852.100,848.810,0.000,0.000,0
1512340105.544,832.360,815.910,853.745,838.940,0.000,0.000,0
1512340105.548,827.425,814.265,845.520,817.555,0.000,0.000,0
1512340105.553,830.715,829.070,842.230,814.265,0.000,0.000,0
1512340105.557,835.650,806.040,842.230,832.360,0.000,0.000,0
1512340105.562,837.295,804.395,845.520,834.005,0.000,0.000,0
1512340105.566,830.715,825.780,845.520,825.780,0.000,0.000,0
1512340105.571,830.715,820.845,845.520,817.555,0.000,0.000,0
1512340105.575,830.715,830.715,842.230,815.910,0.000,0.000,0
1512340105.580,842.230,807.685,848.810,830.715,0.000,0.000,0
1512340105.584,840.585,796.170,855.390,812.620,0.000,0.000,0
1512340105.589,835.650,794.526,852.100,787.946,0.000,0.000,0
1512340105.593,827.425,809.330,850.455,763.271,0.000,0.000,0
1512340105.598,829.070,820.845,850.455,768.206,0.000,0.000,0
1512340105.602,837.295,812.620,848.810,786.301,0.000,0.000,0
1512340105.607,824.135,820.845,843.875,784.656,0.000,0.000,0
1512340105.611,824.135,824.135,838.940,799.460,0.000,0.000,0
1512340105.616,822.490,820.845,835.650,819.200,0.000,0.000,0
1512340105.621,814.265,819.200,837.295,827.425,0.000,0.000,0
1512340105.625,824.135,807.685,837.295,829.070,0.000,0.000,0
1512340105.630,827.425,804.395,843.875,845.520,0.000,0.000,0
1512340105.634,827.425,817.555,845.520,835.650,0.000,0.000,0
1512340105.639,827.425,825.780,842.230,840.585,0.000,0.000,0
1512340105.643,827.425,810.975,847.165,853.745,0.000,0.000,0
1512340105.648,829.070,812.620,847.165,848.810,0.000,0.000,0
1512340105.652,825.780,822.490,848.810,852.100,0.000,0.000,0
1512340105.657,835.650,817.555,848.810,866.905,0.000,0.000,0
1512340105.661,832.360,812.620,843.875,848.810,0.000,0.000,0
1512340105.666,837.295,806.040,843.875,853.745,0.000,0.000,0
1512340105.670,842.230,792.881,848.810,863.615,0.000,0.000,0
1512340105.675,838.940,817.555,852.100,838.940,0.000,0.000,0
1512340105.679,835.650,807.685,845.520,838.940,0.000,0.000,0
1512340105.684,830.715,814.265,843.875,825.780,0.000,0.000,0
1512340105.688,830.715,815.910,842.230,835.650,0.000,0.000,0
1512340105.693,832.360,802.750,845.520,847.165,0.000,0.000,0
1512340105.698,830.715,807.685,845.520,840.585,0.000,0.000,0
1512340105.702,825.780,806.040,847.165,832.360,0.000,0.000,0
1512340105.707,834.005,810.975,845.520,835.650,0.000,0.000,0
1512340105.711,825.780,814.265,842.230,832.360,0.000,0.000,0
1512340105.716,834.005,822.490,847.165,842.230,0.000,0.000,0
1512340105.720,837.295,799.460,848.810,848.810,0.000,0.000,0
1512340105.725,829.070,801.105,848.810,827.425,0.000,0.000,0
1512340105.729,834.005,820.845,853.745,834.005,0.000,0.000,0
1512340105.734,845.520,812.620,857.035,850.455,0.000,0.000,0
1512340105.738,842.230,814.265,850.455,830.715,0.000,0.000,0
1512340105.743,825.780,822.490,843.875,819.200,0.000,0.000,0
1512340105.747,834.005,801.105,845.520,830.715,0.000,0.000,0
1512340105.752,825.780,804.395,835.650,806.040,0.000,0.000,0
1512340105.756,837.295,819.200,842.230,832.360,0.000,0.000,0
1512340105.761,843.875,814.265,852.100,837.295,0.000,0.000,0
1512340105.765,838.940,820.845,848.810,820.845,0.000,0.000,0
1512340105.770,835.650,827.425,847.165,814.265,0.000,0.000,0
1512340105.775,840.585,809.330,848.810,832.360,0.000,0.000,0
1512340105.779,840.585,809.330,847.165,829.070,0.000,0.000,0
1512340105.784,822.490,812.620,845.520,820.845,0.000,0.000,0
1512340105.788,822.490,810.975,847.165,820.845,0.000,0.000,0
1512340105.793,827.425,814.265,850.455,835.650,0.000,0.000,0
1512340105.797,837.295,812.620,850.455,835.650,0.000,0.000,0
1512340105.802,848.810,820.845,847.165,838.940,0.000,0.000,0
1512340105.806,842.230,825.780,843.875,838.940,0.000,0.000,0
1512340105.811,835.650,814.265,845.520,819.200,0.000,0.000,0
1512340105.815,838.940,814.265,845.520,838.940,0.000,0.000,0
1512340105.820,840.585,804.395,853.745,840.585,0.000,0.000,0
1512340105.824,832.360,804.395,848.810,824.135,0.000,0.000,0
1512340105.829,830.715,817.555,847.165,822.490,0.000,0.000,0
1512340105.833,827.425,815.910,843.875,812.620,0.000,0.000,0
1512340105.838,832.360,822.490,843.875,819.200,0.000,0.000,0
1512340105.842,840.585,815.910,850.455,837.295,0.000,0.000,0
1512340105.847,834.005,812.620,848.810,830.715,0.000,0.000,0
1512340105.852,837.295,810.975,852.100,832.360,0.000,0.000,0
1512340105.856,843.875,806.040,855.390,837.295,0.000,0.000,0
1512340105.861,830.715,806.040,848.810,819.200,0.000,0.000,0
1512340105.865,822.490,824.135,843.875,825.780,0.000,0.000,0
1512340105.870,822.490,824.135,847.165,832.360,0.000,0.000,0
1512340105.874,827.425,825.780,843.875,835.650,0.000,0.000,0
1512340105.879,835.650,822.490,848.810,842.230,0.000,0.000,0
1512340105.883,842.230,809.330,848.810,842.230,0.000,0.000,0
1512340105.888,843.875,812.620,852.100,835.650,0.000,0.000,0
1512340105.892,829.070,820.845,842.230,817.555,0.000,0.000,0
1512340105.897,832.360,815.910,847.165,827.425,0.000,0.000,0
1512340105.901,825.780,824.135,847.165,819.200,0.000,0.000,0
1512340105.906,825.780,809.330,843.875,830.715,0.000,0.000,0
1512340105.910,827.425,814.265,847.165,837.295,0.000,0.000,0
1512340105.915,835.650,827.425,842.230,848.810,0.000,0.000,0
1512340105.919,835.650,806.040,842.230,855.390,0.000,0.000,0
1512340105.924,834.005,812.620,847.165,832.360,0.000,0.000,0
1512340105.929,847.165,812.620,848.810,842.230,0.000,0.000,0
1512340105.933,835.650,814.265,843.875,829.070,0.000,0.000,0
1512340105.938,830.715,822.490,835.650,817.555,0.000,0.000,0
1512340105.942,837.295,809.330,843.875,837.295,0.000,0.000,0
1512340105.947,830.715,812.620,845.520,834.005,0.000,0.000,0
1512340105.951,834.005,799.460,855.390,853.745,0.000,0.000,0
1512340105.956,830.715,815.910,852.100,835.650,0.000,0.000,0
1512340105.960,824.135,829.070,843.875,822.490,0.000,0.000,0
1512340105.965,824.135,812.620,848.810,817.555,0.000,0.000,0
1512340105.969,815.910,824.135,845.520,807.685,0.000,0.000,0
1512340105.974,832.360,819.200,845.520,835.650,0.000,0.000,0
1512340105.978,842.230,815.910,850.455,838.940,0.000,0.000,0
1512340105.983,848.810,824.135,855.390,835.650,0.000,0.000,0
1512340105.987,853.745,804.395,852.100,855.390,0.000,0.000,0
1512340105.992,848.810,814.265,845.520,834.005,0.000,0.000,0
1512340105.996,837.295,829.070,838.940,820.845,0.000,0.000,0
1512340106.001,830.715,819.200,843.875,832.360,0.000,0.000,0
1512340106.006,830.715,827.425,845.520,829.070,0.000,0.000,0
1512340106.010,819.200,814.265,840.585,840.585,0.000,0.000,1
1512340106.015,829.070,809.330,838.940,838.940,0.000,0.000,0
1512340106.019,834.005,814.265,845.520,837.295,0.000,0.000,0
1512340106.024,825.780,824.135,850.455,830.715,0.000,0.000,0
1512340106.028,835.650,812.620,857.035,845.520,0.000,0.000,0
1512340106.033,830.715,810.975,853.745,842.230,0.000,0.000,0
1512340106.037,830.715,812.620,852.100,834.005,0.000,0.000,0
1512340106.042,829.070,827.425,848.810,817.555,0.000,0.000,0
1512340106.046,829.070,815.910,848.810,822.490,0.000,0.000,0
1512340106.051,832.360,807.685,843.875,829.070,0.000,0.000,0
1512340106.055,842.230,814.265,843.875,830.715,0.000,0.000,0
1512340106.060,835.650,810.975,852.100,840.585,0.000,0.000,0
1512340106.064,838.940,815.910,850.455,832.360,0.000,0.000,0
1512340106.069,830.715,822.490,847.165,815.910,0.000,0.000,0
1512340106.073,824.135,817.555,845.520,824.135,0.000,0.000,0
1512340106.078,840.585,812.620,847.165,830.715,0.000,0.000,0
1512340106.082,829.070,817.555,847.165,810.975,0.000,0.000,0
1512340106.087,832.360,817.555,845.520,820.845,0.000,0.000,0
1512340106.092,834.005,797.815,845.520,829.070,0.000,0.000,0
1512340106.096,834.005,809.330,847.165,834.005,0.000,0.000,0
1512340106.101,847.165,806.040,852.100,835.650,0.000,0.000,0
1512340106.105,840.585,815.910,847.165,820.845,0.000,0.000,0
1512340106.110,843.875,817.555,845.520,829.070,0.000,0.000,0
1512340106.114,840.585,806.040,842.230,825.780,0.000,0.000,0
1512340106.119,825.780,820.845,838.940,827.425,0.000,0.000,0
1512340106.123,837.295,799.460,843.875,832.360,0.000,0.000,0
1512340106.128,820.845,809.330,837.295,809.330,0.000,0.000,0
1512340106.132,825.780,806.040,840.585,840.585,0.000,0.000,0
1512340106.137,834.005,796.170,840.585,837.295,0.000,0.000,0
1512340106.141,829.070,817.555,840.585,829.070,0.000,0.000,0
1512340106.146,825.780,797.815,843.875,820.845,0.000,0.000,0
1512340106.150,819.200,812.620,843.875,796.170,0.000,0.000,0
1512340106.155,825.780,807.685,843.875,817.555,0.000,0.000,0
1512340106.159,832.360,802.750,843.875,820.845,0.000,0.000,0
1512340106.164,837.295,807.685,843.875,815.910,0.000,0.000,0
1512340106.169,834.005,810.975,843.875,817.555,0.000,0.000,0
1512340106.173,834.005,801.105,843.875,824.135,0.000,0.000,0
1512340106.178,837.295,809.330,843.875,835.650,0.000,0.000,0
1512340106.182,842.230,807.685,848.810,852.100,0.000,0.000,0
1512340106.187,834.005,774.786,850.455,829.070,0.000,0.000,0
1512340106.191,832.360,806.040,842.230,819.200,0.000,0.000,0
1512340106.196,835.650,815.910,838.940,822.490,0.000,0.000,0
1512340106.200,837.295,814.265,840.585,814.265,0.000,0.000,0
1512340106.205,838.940,817.555,842.230,834.005,0.000,0.000,0
1512340106.209,838.940,802.750,845.520,830.715,0.000,0.000,0
1512340106.214,835.650,802.750,842.230,830.715,0.000,0.000,0
1512340106.218,838.940,814.265,838.940,827.425,0.000,0.000,0
1512340106.223,842.230,810.975,843.875,834.005,0.000,0.000,0
1512340106.227,830.715,807.685,842.230,827.425,0.000,0.000,0
1512340106.232,835.650,806.040,845.520,837.295,0.000,0.000,0
1512340106.236,847.165,801.105,847.165,837.295,0.000,0.000,0
1512340106.241,847.165,817.555,845.520,827.425,0.000,0.000,0
1512340106.246,838.940,802.750,843.875,834.005,0.000,0.000,0
1512340106.250,838.940,804.395,842.230,838.940,0.000,0.000,0
1512340106.255,834.005,806.040,843.875,829.070,0.000,0.000,0
1512340106.259,838.940,809.330,842.230,825.780,0.000,0.000,0
1512340106.264,842.230,806.040,848.810,830.715,0.000,0.000,0
1512340106.268,825.780,815.910,843.875,822.490,0.000,0.000,0
1512340106.273,835.650,809.330,847.165,837.295,0.000,0.000,0
1512340106.277,835.650,807.685,850.455,834.005,0.000,0.000,0
1512340106.282,842.230,801.105,848.810,840.585,0.000,0.000,0
1512340106.286,829.070,812.620,847.165,845.520,0.000,0.000,0
1512340106.291,819.200,815.910,840.585,822.490,0.000,0.000,0
1512340106.295,834.005,807.685,852.100,837.295,0.000,0.000,0
1512340106.300,827.425,825.780,845.520,825.780,0.000,0.000,0
1512340106.304,837.295,812.620,847.165,830.715,0.000,0.000,0
1512340106.309,829.070,817.555,852.100,834.005,0.000,0.000,0
1512340106.313,820.845,827.425,847.165,834.005,0.000,0.000,0
1512340106.318,832.360,792.881,850.455,847.165,0.000,0.000,0
1512340106.323,825.780,806.040,850.455,835.650,0.000,0.000,0
1512340106.327,829.070,815.910,845.520,835.650,0.000,0.000,0
1512340106.332,840.585,810.975,845.520,842.230,0.000,0.000,0
1512340106.336,838.940,815.910,850.455,835.650,0.000,0.000,0
1512340106.341,832.360,819.200,847.165,827.425,0.000,0.000,0
1512340106.345,832.360,825.780,845.520,830.715,0.000,0.000,0
1512340106.350,840.585,819.200,848.810,835.650,0.000,0.000,0
1512340106.354,843.875,806.040,850.455,850.455,0.000,0.000,0
1512340106.359,843.875,796.170,853.745,848.810,0.000,0.000,0
1512340106.363,840.585,810.975,848.810,817.555,0.000,0.000,0
1512340106.368,835.650,822.490,843.875,817.555,0.000,0.000,0
1512340106.372,834.005,819.200,845.520,829.070,0.000,0.000,0
1512340106.377,842.230,807.685,847.165,830.715,0.000,0.000,0
1512340106.381,840.585,812.620,852.100,837.295,0.000,0.000,0
1512340106.386,830.715,817.555,845.520,824.135,0.000,0.000,0
1512340106.390,840.585,802.750,848.810,840.585,0.000,0.000,0
1512340106.395,834.005,806.040,843.875,837.295,0.000,0.000,0
1512340106.400,830.715,801.105,847.165,843.875,0.000,0.000,0
1512340106.404,837.295,807.685,847.165,827.425,0.000,0.000,0
1512340106.409,832.360,815.910,845.520,824.135,0.000,0.000,0
1512340106.413,835.650,807.685,848.810,825.780,0.000,0.000,0
1512340106.418,830.715,824.135,843.875,825.780,0.000,0.000,0
1512340106.422,834.005,814.265,847.165,840.585,0.000,0.000,0
1512340106.427,825.780,824.135,845.520,835.650,0.000,0.000,0
1512340106.431,834.005,806.040,847.165,858.680,0.000,0.000,0
1512340106.436,843.875,791.236,850.455,845.520,0.000,0.000,0
1512340106.440,834.005,802.750,847.165,838.940,0.000,0.000,0
1512340106.445,843.875,802.750,852.100,848.810,0.000,0.000,0
1512340106.449,834.005,820.845,847.165,822.490,0.000,0.000,0
1512340106.454,830.715,809.330,843.875,838.940,0.000,0.000,0
1512340106.458,838.940,809.330,848.810,837.295,0.000,0.000,0
1512340106.463,832.360,812.620,843.875,835.650,0.000,0.000,0
1512340106.467,838.940,806.040,850.455,848.810,0.000,0.000,0
1512340106.472,835.650,810.975,848.810,830.715,0.000,0.000,0
1512340106.477,835.650,804.395,847.165,830.715,0.000,0.000,0
1512340106.481,842.230,806.040,847.165,812.620,0.000,0.000,0
1512340106.486,827.425,819.200,847.165,819.200,0.000,0.000,0
1512340106.490,834.005,806.040,848.810,843.875,0.000,0.000,0
1512340106.495,835.650,796.170,847.165,835.650,0.000,0.000,0
1512340106.499,830.715,799.460,848.810,825.780,0.000,0.000,0
1512340106.504,829.070,810.975,853.745,827.425,0.000,0.000,0
1512340106.508,845.520,819.200,852.100,822.490,0.000,0.000,0
1512340106.513,838.940,807.685,842.230,814.265,0.000,0.000,0
1512340106.517,835.650,814.265,845.520,824.135,0.000,0.000,0
1512340106.522,832.360,810.975,845.520,830.715,0.000,0.000,0
1512340106.526,814.265,815.910,837.295,819.200,0.000,0.000,0
1512340106.531,814.265,820.845,837.295,829.070,0.000,0.000,0
1512340106.535,834.005,792.881,838.940,845.520,0.000,0.000,0
1512340106.540,832.360,807.685,840.585,830.715,0.000,0.000,0
1512340106.544,840.585,817.555,850.455,842.230,0.000,0.000,0
1512340106.549,848.810,817.555,853.745,838.940,0.000,0.000,0
1512340106.554,850.455,812.620,848.810,817.555,0.000,0.000,0
1512340106.558,835.650,819.200,840.585,810.975,0.000,0.000,0
1512340106.563,832.360,809.330,842.230,830.715,0.000,0.000,0
1512340106.567,824.135,814.265,843.875,838.940,0.000,0.000,0
1512340106.572,835.650,810.975,847.165,853.745,0.000,0.000,0
1512340106.576,827.425,802.750,852.100,847.165,0.000,0.000,0
1512340106.581,835.650,810.975,848.810,827.425,0.000,0.000,0
1512340106.585,834.005,819.200,845.520,830.715,0.000,0.000,0
1512340106.590,842.230,809.330,845.520,835.650,0.000,0.000,0
1512340106.594,843.875,799.460,843.875,829.070,0.000,0.000,0
1512340106.599,834.005,815.910,843.875,820.845,0.000,0.000,0
1512340106.603,829.070,819.200,842.230,824.135,0.000,0.000,0
1512340106.608,825.780,812.620,842.230,829.070,0.000,0.000,0
1512340106.612,829.070,819.200,840.585,845.520,0.000,0.000,0
1512340106.617,829.070,799.460,850.455,850.455,0.000,0.000,0
1512340106.621,827.425,806.040,853.745,822.490,0.000,0.000,0
1512340106.626,829.070,814.265,847.165,817.555,0.000,0.000,0
1512340106.631,835.650,819.200,850.455,827.425,0.000,0.000,0
1512340106.635,837.295,824.135,845.520,819.200,0.000,0.000,0
1512340106.640,832.360,814.265,845.520,829.070,0.000,0.000,0
1512340106.644,815.910,822.490,842.230,832.360,0.000,0.000,0
1512340106.649,835.650,810.975,845.520,848.810,0.000,0.000,0
1512340106.653,835.650,815.910,847.165,848.810,0.000,0.000,0
1512340106.658,829.070,814.265,847.165,835.650,0.000,0.000,1
1512340106.662,834.005,791.236,847.165,834.005,0.000,0.000,0
1512340106.667,825.780,817.555,842.230,807.685,0.000,0.000,0
1512340106.671,838.940,815.910,845.520,834.005,0.000,0.000,0
1512340106.676,840.585,810.975,852.100,838.940,0.000,0.000,0
1512340106.680,827.425,819.200,848.810,819.200,0.000,0.000,0
1512340106.685,822.490,819.200,845.520,822.490,0.000,0.000,0
1512340106.689,827.425,810.975,848.810,830.715,0.000,0.000,0
1512340106.694,835.650,825.780,852.100,827.425,0.000,0.000,0
1512340106.698,840.585,810.975,850.455,847.165,0.000,0.000,0
1512340106.703,838.940,794.526,847.165,832.360,0.000,0.000,0
1512340106.708,850.455,806.040,848.810,842.230,0.000,0.000,0
1512340106.712,834.005,817.555,853.745,840.585,0.000,0.000,0
1512340106.717,843.875,817.555,853.745,832.360,0.000,0.000,0
1512340106.721,827.425,829.070,843.875,829.070,0.000,0.000,0
1512340106.726,830.715,817.555,845.520,834.005,0.000,0.000,0
1512340106.730,842.230,812.620,845.520,834.005,0.000,0.000,0
1512340106.735,827.425,824.135,847.165,822.490,0.000,0.000,0
1512340106.739,847.165,819.200,848.810,830.715,0.000,0.000,0
1512340106.744,838.940,815.910,842.230,824.135,0.000,0.000,0
1512340106.748,838.940,810.975,843.875,845.520,0.000,0.000,0
1512340106.753,842.230,815.910,853.745,848.810,0.000,0.000,0
1512340106.757,830.715,824.135,848.810,827.425,0.000,0.000,0
1512340106.762,842.230,817.555,852.100,834.005,0.000,0.000,0
1512340106.766,847.165,812.620,852.100,830.715,0.000,0.000,0
1512340106.771,832.360,825.780,847.165,819.200,0.000,0.000,0
1512340106.775,843.875,820.845,850.455,829.070,0.000,0.000,0
1512340106.780,834.005,815.910,850.455,822.490,0.000,0.000,0
1512340106.784,832.360,819.200,850.455,812.620,0.000,0.000,0
1512340106.789,842.230,797.815,850.455,835.650,0.000,0.000,0
1512340106.794,835.650,820.845,847.165,832.360,0.000,0.000,0
1512340106.798,834.005,829.070,847.165,815.910,0.000,0.000,0
1512340106.803,842.230,824.135,845.520,830.715,0.000,0.000,0
1512340106.807,845.520,820.845,853.745,827.425,0.000,0.000,0
1512340106.812,837.295,819.200,850.455,822.490,0.000,0.000,0
1512340106.816,837.295,825.780,845.520,827.425,0.000,0.000,0
1512340106.821,829.070,812.620,847.165,843.875,0.000,0.000,0
1512340106.825,825.780,814.265,843.875,838.940,0.000,0.000,0
1512340106.830,843.875,812.620,850.455,848.810,0.000,0.000,0
1512340106.834,850.455,812.620,853.745,843.875,0.000,0.000,0
1512340106.839,834.005,830.715,847.165,809.330,0.000,0.000,0
1512340106.843,825.780,832.360,842.230,819.200,0.000,0.000,0
1512340106.848,834.005,817.555,847.165,843.875,0.000,0.000,0
1512340106.852,830.715,815.910,852.100,840.585,0.000,0.000,0
1512340106.857,834.005,815.910,850.455,835.650,0.000,0.000,0
1512340106.861,832.360,809.330,852.100,819.200,0.000,0.000,0
1512340106.866,832.360,802.750,847.165,791.236,0.000,0.000,0
1512340106.871,837.295,809.330,850.455,771.496,0.000,0.000,0
1512340106.875,834.005,814.265,852.100,771.496,0.000,0.000,0
1512340106.880,832.360,829.070,845.520,779.721,0.000,0.000,0
1512340106.884,832.360,825.780,843.875,809.330,0.000,0.000,0
1512340106.889,825.780,822.490,842.230,822.490,0.000,0.000,0
1512340106.893,840.585,801.105,850.455,837.295,0.000,0.000,0
1512340106.898,834.005,807.685,850.455,834.005,0.000,0.000,0
1512340106.902,832.360,815.910,853.745,835.650,0.000,0.000,0
1512340106.907,832.360,822.490,852.100,835.650,0.000,0.000,0
1512340106.911,825.780,824.135,842.230,837.295,0.000,0.000,0
1512340106.916,845.520,815.910,852.100,850.455,0.000,0.000,0
1512340106.920,838.940,825.780,850.455,837.295,0.000,0.000,0
1512340106.925,830.715,812.620,847.165,842.230,0.000,0.000,0
1512340106.929,829.070,809.330,850.455,832.360,0.000,0.000,0
1512340106.934,809.330,822.490,838.940,827.425,0.000,0.000,0
1512340106.938,827.425,815.910,843.875,842.230,0.000,0.000,0
1512340106.943,827.425,820.845,843.875,832.360,0.000,0.000,0
1512340106.948,837.295,812.620,845.520,848.810,0.000,0.000,0
1512340106.952,832.360,802.750,850.455,852.100,0.000,0.000,0
1512340106.957,832.360,815.910,847.165,840.585,0.000,0.000,0
1512340106.961,837.295,812.620,852.100,837.295,0.000,0.000,0
1512340106.966,825.780,827.425,845.520,829.070,0.000,0.000,0
1512340106.970,843.875,817.555,843.875,853.745,0.000,0.000,0
1512340106.975,835.650,822.490,850.455,842.230,0.000,0.000,0
1512340106.979,835.650,825.780,848.810,845.520,0.000,0.000,0
1512340106.984,837.295,809.330,852.100,830.715,0.000,0.000,0
1512340106.988,830.715,825.780,847.165,819.200,0.000,0.000,0
1512340106.993,832.360,809.330,847.165,834.005,0.000,0.000,0
1512340106.997,817.555,820.845,845.520,815.910,0.000,0.000,0
1512340107.002,820.845,825.780,838.940,827.425,0.000,0.000,0
1512340107.006,829.070,809.330,848.810,837.295,0.000,0.000,0
1512340107.011,832.360,817.555,847.165,820.845,0.000,0.000,0
1512340107.015,830.715,827.425,847.165,815.910,0.000,0.000,0
1512340107.020,832.360,822.490,852.100,829.070,0.000,0.000,0
1512340107.025,845.520,817.555,850.455,838.940,0.000,0.000,0
1512340107.029,838.940,810.975,848.810,834.005,0.000,0.000,0
1512340107.034,830.715,812.620,848.810,834.005,0.000,0.000,0
1512340107.038,835.650,812.620,847.165,834.005,0.000,0.000,0
1512340107.043,837.295,819.200,850.455,835.650,0.000,0.000,0
1512340107.047,842.230,809.330,852.100,850.455,0.000,0.000,0
1512340107.052,840.585,804.395,847.165,822.490,0.000,0.000,0
1512340107.056,835.650,817.555,843.875,815.910,0.000,0.000,0
1512340107.061,838.940,819.200,848.810,830.715,0.000,0.000,0
1512340107.065,834.005,820.845,847.165,819.200,0.000,0.000,0
1512340107.070,835.650,797.815,843.875,832.360,0.000,0.000,0
1512340107.074,825.780,806.040,843.875,829.070,0.000,0.000,0
1512340107.079,832.360,814.265,842.230,824.135,0.000,0.000,0
1512340107.083,840.585,814.265,842.230,827.425,0.000,0.000,0
1512340107.088,843.875,810.975,848.810,819.200,0.000,0.000,0
1512340107.092,842.230,812.620,843.875,814.265,0.000,0.000,0
1512340107.097,840.585,822.490,843.875,814.265,0.000,0.000,0
1512340107.102,842.230,809.330,842.230,827.425,0.000,0.000,0
1512340107.106,835.650,806.040,845.520,829.070,0.000,0.000,0
1512340107.111,830.715,797.815,847.165,825.780,0.000,0.000,0
1512340107.115,830.715,807.685,847.165,815.910,0.000,0.000,0
1512340107.120,834.005,822.490,847.165,829.070,0.000,0.000,0
1512340107.124,845.520,822.490,847.165,835.650,0.000,0.000,0
1512340107.129,847.165,815.910,847.165,845.520,0.000,0.000,0
1512340107.133,848.810,791.236,847.165,838.940,0.000,0.000,0
1512340107.138,825.780,815.910,840.585,802.750,0.000,0.000,0
1512340107.142,822.490,829.070,837.295,806.040,0.000,0.000,0
1512340107.147,829.070,812.620,842.230,824.135,0.000,0.000,0
1512340107.151,829.070,814.265,843.875,840.585,0.000,0.000,0
1512340107.156,852.100,806.040,845.520,857.035,0.000,0.000,0
1512340107.160,845.520,796.170,850.455,838.940,0.000,0.000,0
1512340107.165,822.490,810.975,848.810,817.555,0.000,0.000,0
1512340107.169,827.425,815.910,852.100,827.425,0.000,0.000,0
1512340107.174,840.585,799.460,852.100,827.425,0.000,0.000,0
1512340107.179,842.230,801.105,855.390,843.875,0.000,0.000,0
1512340107.183,848.810,806.040,858.680,855.390,0.000,0.000,0
1512340107.188,857.035,797.815,863.615,876.775,0.000,0.000,0
1512340107.192,853.745,802.750,861.970,878.419,0.000,0.000,0
1512340107.197,866.905,791.236,868.550,899.804,0.000,0.000,0
1512340107.201,878.419,794.526,870.195,891.579,0.000,0.000,0
1512340107.206,875.130,804.395,863.615,875.130,0.000,0.000,0
1512340107.210,880.064,792.881,868.550,891.579,0.000,0.000,0
1512340107.215,876.775,796.170,861.970,896.514,0.000,0.000,0
1512340107.219,871.840,781.366,868.550,904.739,0.000,0.000,0
1512340107.224,866.905,791.236,870.195,894.869,0.000,0.000,0
1512340107.228,873.485,801.105,863.615,894.869,0.000,0.000,0
1512340107.233,861.970,806.040,858.680,870.195,0.000,0.000,0
1512340107.237,871.840,789.591,860.325,878.419,0.000,0.000,0
1512340107.242,866.905,801.105,857.035,871.840,0.000,0.000,0
1512340107.246,863.615,794.526,861.970,886.644,0.000,0.000,0
1512340107.251,860.325,783.011,861.970,881.709,0.000,0.000,0
1512340107.256,847.165,801.105,858.680,873.485,0.000,0.000,0
1512340107.260,852.100,789.591,860.325,878.419,0.000,0.000,0
1512340107.265,842.230,799.460,858.680,850.455,0.000,0.000,0
1512340107.269,855.390,797.815,858.680,876.775,0.000,0.000,0
1512340107.274,843.875,792.881,855.390,865.260,0.000,0.000,2
1512340107.278,852.100,802.750,857.035,865.260,0.000,0.000,0
1512340107.283,863.615,801.105,860.325,868.550,0.000,0.000,0
1512340107.287,845.520,810.975,858.680,848.810,0.000,0.000,0
1512340107.292,848.810,796.170,860.325,860.325,0.000,0.000,0
1512340107.296,845.520,799.460,857.035,843.875,0.000,0.000,0
1512340107.301,848.810,801.105,858.680,853.745,0.000,0.000,0
1512340107.305,848.810,796.170,857.035,850.455,0.000,0.000,0
1512340107.310,843.875,804.395,855.390,843.875,0.000,0.000,0
1512340107.314,835.650,807.685,852.100,840.585,0.000,0.000,0
1512340107.319,830.715,802.750,852.100,850.455,0.000,0.000,0
1512340107.323,840.585,801.105,853.745,853.745,0.000,0.000,0
1512340107.328,842.230,799.460,855.390,857.035,0.000,0.000,0
1512340107.333,843.875,806.040,857.035,857.035,0.000,0.000,0
1512340107.337,843.875,799.460,858.680,852.100,0.000,0.000,0
1512340107.342,832.360,804.395,853.745,852.100,0.000,0.000,0
1512340107.346,842.230,787.946,855.390,853.745,0.000,0.000,0
1512340107.351,843.875,802.750,857.035,855.390,0.000,0.000,0
1512340107.355,838.940,824.135,853.745,840.585,0.000,0.000,0
1512340107.360,829.070,810.975,853.745,843.875,0.000,0.000,0
1512340107.364,834.005,797.815,852.100,858.680,0.000,0.000,0
1512340107.369,843.875,791.236,852.100,857.035,0.000,0.000,0
1512340107.373,835.650,802.750,855.390,847.165,0.000,0.000,0
1512340107.378,848.810,809.330,857.035,845.520,0.000,0.000,0
1512340107.382,827.425,809.330,843.875,830.715,0.000,0.000,0
1512340107.387,835.650,807.685,847.165,830.715,0.000,0.000,0
1512340107.391,845.520,796.170,852.100,842.230,0.000,0.000,0
1512340107.396,840.585,789.591,855.390,843.875,0.000,0.000,0
1512340107.400,847.165,806.040,857.035,855.390,0.000,0.000,0
1512340107.405,830.715,809.330,852.100,845.520,0.000,0.000,0
1512340107.409,829.070,799.460,853.745,843.875,0.000,0.000,0
1512340107.414,827.425,804.395,852.100,845.520,0.000,0.000,0
1512340107.419,824.135,797.815,853.745,832.360,0.000,0.000,0
1512340107.423,834.005,797.815,850.455,842.230,0.000,0.000,0
1512340107.428,840.585,801.105,853.745,834.005,0.000,0.000,0
1512340107.432,834.005,806.040,853.745,827.425,0.000,0.000,0
1512340107.437,838.940,784.656,853.745,845.520,0.000,0.000,0
1512340107.441,835.650,787.946,847.165,845.520,0.000,0.000,0
1512340107.446,835.650,789.591,848.810,845.520,0.000,0.000,0
1512340107.450,829.070,796.170,848.810,835.650,0.000,0.000,0
1512340107.455,840.585,796.170,848.810,848.810,0.000,0.000,0
1512340107.459,838.940,799.460,845.520,847.165,0.000,0.000,0
1512340107.464,853.745,786.301,850.455,863.615,0.000,0.000,0
1512340107.468,847.165,787.946,847.165,853.745,0.000,0.000,0
1512340107.473,829.070,794.526,848.810,843.875,0.000,0.000,0
1512340107.477,827.425,789.591,850.455,843.875,0.000,0.000,0
1512340107.482,824.135,804.395,845.520,830.715,0.000,0.000,0
1512340107.486,838.940,783.011,850.455,852.100,0.000,0.000,0
1512340107.491,840.585,791.236,847.165,848.810,0.000,0.000,0
1512340107.496,842.230,787.946,848.810,850.455,0.000,0.000,0
1512340107.500,840.585,776.431,848.810,845.520,0.000,0.000,0
1512340107.505,820.845,804.395,848.810,824.135,0.000,0.000,0
1512340107.509,834.005,801.105,848.810,830.715,0.000,0.000,0
1512340107.514,825.780,806.040,843.875,814.265,0.000,0.000,0
1512340107.518,834.005,807.685,843.875,834.005,0.000,0.000,0
1512340107.523,838.940,797.815,848.810,838.940,0.000,0.000,0
1512340107.527,830.715,804.395,848.810,834.005,0.000,0.000,0
1512340107.532,830.715,807.685,850.455,832.360,0.000,0.000,0
1512340107.536,835.650,789.591,855.390,837.295,0.000,0.000,0
1512340107.541,829.070,797.815,848.810,829.070,0.000,0.000,0
1512340107.545,832.360,807.685,850.455,835.650,0.000,0.000,0
1512340107.550,832.360,812.620,848.810,850.455,0.000,0.000,0
1512340107.554,834.005,807.685,840.585,840.585,0.000,0.000,0
1512340107.559,834.005,804.395,842.230,840.585,0.000,0.000,0
1512340107.563,837.295,792.881,847.165,845.520,0.000,0.000,0
1512340107.568,829.070,806.040,845.520,820.845,0.000,0.000,0
1512340107.573,825.780,820.845,840.585,820.845,0.000,0.000,0
1512340107.577,827.425,815.910,843.875,840.585,0.000,0.000,0
1512340107.582,835.650,812.620,843.875,847.165,0.000,0.000,0
1512340107.586,842.230,802.750,848.810,852.100,0.000,0.000,0
1512340107.591,834.005,802.750,847.165,845.520,0.000,0.000,0
1512340107.595,842.230,799.460,843.875,837.295,0.000,0.000,0
1512340107.600,832.360,809.330,840.585,825.780,0.000,0.000,0
1512340107.604,830.715,810.975,845.520,835.650,0.000,0.000,0
1512340107.609,837.295,814.265,847.165,830.715,0.000,0.000,0
1512340107.613,827.425,822.490,843.875,817.555,0.000,0.000,0
1512340107.618,834.005,815.910,843.875,837.295,0.000,0.000,0
1512340107.622,840.585,809.330,843.875,832.360,0.000,0.000,0
1512340107.627,834.005,815.910,840.585,832.360,0.000,0.000,0
1512340107.631,832.360,827.425,843.875,829.070,0.000,0.000,0
1512340107.636,832.360,822.490,845.520,840.585,0.000,0.000,0
1512340107.640,822.490,812.620,842.230,832.360,0.000,0.000,0
1512340107.645,832.360,792.881,847.165,845.520,0.000,0.000,0
1512340107.650,832.360,802.750,842.230,817.555,0.000,0.000,0
1512340107.654,834.005,824.135,840.585,810.975,0.000,0.000,0
1512340107.659,834.005,824.135,840.585,827.425,0.000,0.000,0
1512340107.663,830.715,815.910,837.295,838.940,0.000,0.000,0
1512340107.668,842.230,804.395,843.875,843.875,0.000,0.000,0
1512340107.672,838.940,817.555,847.165,825.780,0.000,0.000,0
1512340107.677,848.810,820.845,847.165,829.070,0.000,0.000,0
1512340107.681,835.650,832.360,847.165,827.425,0.000,0.000,0
1512340107.686,838.940,815.910,848.810,843.875,0.000,0.000,0
1512340107.690,845.520,809.330,847.165,835.650,0.000,0.000,0
1512340107.695,830.715,822.490,847.165,820.845,0.000,0.000,0
1512340107.699,838.940,814.265,843.875,825.780,0.000,0.000,0
1512340107.704,838.940,815.910,845.520,834.005,0.000,0.000,0
1512340107.708,835.650,815.910,850.455,850.455,0.000,0.000,0
1512340107.713,858.680,806.040,852.100,853.745,0.000,0.000,0
1512340107.717,847.165,807.685,850.455,827.425,0.000,0.000,0
1512340107.722,822.490,827.425,838.940,792.881,0.000,0.000,0
1512340107.727,814.265,830.715,838.940,787.946,0.000,0.000,0
1512340107.731,794.526,830.715,832.360,766.561,0.000,0.000,0
1512340107.736,783.011,822.490,832.360,759.981,0.000,0.000,0
1512340107.740,783.011,820.845,838.940,766.561,0.000,0.000,0
1512340107.745,755.046,830.715,827.425,732.016,0.000,0.000,0
1512340107.749,730.371,822.490,825.780,723.791,0.000,0.000,0
1512340107.754,735.306,822.490,822.490,717.211,0.000,0.000,0
1512340107.758,732.016,829.070,819.200,677.732,0.000,0.000,0
1512340107.763,718.856,830.715,822.490,672.797,0.000,0.000,0
1512340107.767,727.081,834.005,822.490,682.667,0.000,0.000,0
1512340107.772,720.501,835.650,819.200,674.442,0.000,0.000,0
1512340107.776,723.791,817.555,815.910,697.472,0.000,0.000,0
1512340107.781,730.371,810.975,820.845,710.632,0.000,0.000,0
1512340107.785,730.371,822.490,820.845,694.182,0.000,0.000,2
1512340107.790,735.306,829.070,820.845,723.791,0.000,0.000,0
1512340107.794,733.661,829.070,819.200,715.566,0.000,0.000,0
1512340107.799,755.046,824.135,825.780,727.081,0.000,0.000,0
1512340107.804,750.111,832.360,817.555,722.146,0.000,0.000,0
1512340107.808,776.431,824.135,820.845,723.791,0.000,0.000,0
1512340107.813,789.591,829.070,824.135,738.596,0.000,0.000,0
1512340107.817,794.526,830.715,822.490,766.561,0.000,0.000,0
1512340107.822,792.881,817.555,827.425,771.496,0.000,0.000,0
1512340107.826,794.526,825.780,827.425,773.141,0.000,0.000,0
1512340107.831,801.105,842.230,825.780,771.496,0.000,0.000,0
1512340107.835,809.330,827.425,832.360,787.946,0.000,0.000,0
1512340107.840,829.070,820.845,834.005,801.105,0.000,0.000,0
1512340107.844,830.715,817.555,825.780,797.815,0.000,0.000,0
1512340107.849,834.005,834.005,829.070,814.265,0.000,0.000,0
1512340107.853,840.585,817.555,827.425,832.360,0.000,0.000,0
1512340107.858,838.940,819.200,830.715,834.005,0.000,0.000,0
1512340107.862,858.680,817.555,838.940,852.100,0.000,0.000,0
1512340107.867,850.455,832.360,835.650,825.780,0.000,0.000,0
1512340107.871,852.100,847.165,834.005,838.940,0.000,0.000,0
1512340107.876,857.035,832.360,835.650,845.520,0.000,0.000,0
1512340107.881,865.260,814.265,835.650,852.100,0.000,0.000,0
1512340107.885,881.709,804.395,843.875,866.905,0.000,0.000,0
1512340107.890,876.775,822.490,852.100,858.680,0.000,0.000,0
1512340107.894,866.905,829.070,845.520,838.940,0.000,0.000,0
1512340107.899,855.390,827.425,837.295,843.875,0.000,0.000,0
