timestamps,TP9,FP1,FP2,TP10,n/a,n/a,Marker0
1512337321.980,838.940,843.875,847.165,848.810,0.000,0.000,0
1512337321.984,796.170,829.070,850.455,690.892,0.000,0.000,0
1512337321.989,784.656,837.295,842.230,690.892,0.000,0.000,0
1512337321.993,822.490,835.650,843.875,796.170,0.000,0.000,0
1512337321.998,852.100,830.715,840.585,848.810,0.000,0.000,0
1512337322.002,807.685,840.585,838.940,743.531,0.000,0.000,0
1512337322.007,787.946,837.295,842.230,690.892,0.000,0.000,0
1512337322.011,797.815,832.360,842.230,743.531,0.000,0.000,0
1512337322.016,830.715,847.165,843.875,848.810,0.000,0.000,0
1512337322.020,840.585,837.295,850.455,848.810,0.000,0.000,0
1512337322.025,799.460,837.295,852.100,743.531,0.000,0.000,0
1512337322.029,799.460,837.295,845.520,743.531,0.000,0.000,0
1512337322.034,834.005,838.940,845.520,848.810,0.000,0.000,0
1512337322.038,843.875,835.650,848.810,901.449,0.000,0.000,0
1512337322.043,802.750,835.650,845.520,796.170,0.000,0.000,0
1512337322.047,784.656,840.585,843.875,743.531,0.000,0.000,0
1512337322.052,814.265,838.940,847.165,848.810,0.000,0.000,0
1512337322.057,848.810,840.585,847.165,954.089,0.000,0.000,0
1512337322.061,824.135,840.585,848.810,901.449,0.000,0.000,0
1512337322.066,791.236,838.940,850.455,796.170,0.000,0.000,0
1512337322.070,796.170,832.360,847.165,796.170,0.000,0.000,0
1512337322.075,832.360,838.940,847.165,901.449,0.000,0.000,0
1512337322.079,847.165,837.295,850.455,901.449,0.000,0.000,0
1512337322.084,797.815,829.070,850.455,743.531,0.000,0.000,0
1512337322.088,786.301,830.715,850.455,743.531,0.000,0.000,0
1512337322.093,801.105,837.295,842.230,796.170,0.000,0.000,0
1512337322.097,842.230,835.650,843.875,901.449,0.000,0.000,0
1512337322.102,815.910,835.650,847.165,848.810,0.000,0.000,0
1512337322.106,783.011,837.295,847.165,796.170,0.000,0.000,0
1512337322.111,810.975,837.295,847.165,796.170,0.000,0.000,0
1512337322.115,829.070,843.875,843.875,901.449,0.000,0.000,0
1512337322.120,837.295,840.585,847.165,901.449,0.000,0.000,0
1512337322.124,789.591,835.650,848.810,848.810,0.000,0.000,0
1512337322.129,783.011,834.005,847.165,848.810,0.000,0.000,0
1512337322.134,815.910,842.230,847.165,954.089,0.000,0.000,0
1512337322.138,850.455,840.585,847.165,1006.728,0.000,0.000,0
1512337322.143,820.845,840.585,852.100,901.449,0.000,0.000,0
1512337322.147,799.460,832.360,855.390,848.810,0.000,0.000,0
1512337322.152,810.975,832.360,847.165,848.810,0.000,0.000,0
1512337322.156,838.940,837.295,845.520,954.089,0.000,0.000,0
1512337322.161,835.650,829.070,850.455,954.089,0.000,0.000,0
1512337322.165,786.301,829.070,845.520,848.810,0.000,0.000,0
1512337322.170,786.301,842.230,843.875,848.810,0.000,0.000,0
1512337322.174,822.490,840.585,845.520,954.089,0.000,0.000,0
1512337322.179,843.875,838.940,847.165,954.089,0.000,0.000,0
1512337322.183,807.685,832.360,853.745,848.810,0.000,0.000,0
1512337322.188,787.946,835.650,852.100,796.170,0.000,0.000,0
1512337322.192,815.910,830.715,853.745,848.810,0.000,0.000,0
1512337322.197,825.780,838.940,845.520,848.810,0.000,0.000,0
1512337322.201,822.490,838.940,847.165,796.170,0.000,0.000,0
1512337322.206,792.881,832.360,847.165,690.892,0.000,0.000,0
1512337322.210,796.170,835.650,843.875,690.892,0.000,0.000,0
1512337322.215,838.940,837.295,843.875,796.170,0.000,0.000,0
1512337322.220,832.360,834.005,847.165,796.170,0.000,0.000,0
1512337322.224,789.591,832.360,843.875,690.892,0.000,0.000,0
1512337322.229,804.395,832.360,843.875,690.892,0.000,0.000,0
1512337322.233,814.265,827.425,845.520,743.531,0.000,0.000,0
1512337322.238,842.230,835.650,845.520,796.170,0.000,0.000,0
1512337322.242,822.490,834.005,850.455,743.531,0.000,0.000,0
1512337322.247,771.496,838.940,845.520,690.892,0.000,0.000,0
1512337322.251,809.330,834.005,847.165,743.531,0.000,0.000,0
1512337322.256,838.940,832.360,848.810,848.810,0.000,0.000,0
1512337322.260,819.200,834.005,848.810,848.810,0.000,0.000,0
1512337322.265,791.236,835.650,847.165,743.531,0.000,0.000,0
1512337322.269,791.236,834.005,848.810,771.496,0.000,0.000,0
1512337322.274,820.845,825.780,848.810,876.775,0.000,0.000,0
1512337322.278,845.520,832.360,848.810,876.775,0.000,0.000,0
1512337322.283,786.301,829.070,847.165,771.496,0.000,0.000,0
1512337322.287,781.366,832.360,848.810,718.856,0.000,0.000,0
1512337322.292,809.330,838.940,845.520,771.496,0.000,0.000,0
1512337322.297,847.165,832.360,850.455,876.775,0.000,0.000,0
1512337322.301,814.265,832.360,848.810,824.135,0.000,0.000,0
1512337322.306,787.946,843.875,843.875,718.856,0.000,0.000,0
1512337322.310,789.591,838.940,847.165,771.496,0.000,0.000,0
1512337322.315,829.070,838.940,847.165,876.775,0.000,0.000,0
1512337322.319,812.620,830.715,850.455,876.775,0.000,0.000,0
1512337322.324,776.431,824.135,847.165,718.856,0.000,0.000,0
1512337322.328,809.330,835.650,842.230,718.856,0.000,0.000,0
1512337322.333,827.425,838.940,843.875,824.135,0.000,0.000,0
1512337322.337,875.130,837.295,847.165,929.414,0.000,0.000,0
1512337322.342,824.135,838.940,850.455,824.135,0.000,0.000,0
1512337322.346,768.206,832.360,850.455,666.217,0.000,0.000,0
1512337322.351,797.815,837.295,847.165,718.856,0.000,0.000,0
1512337322.355,830.715,843.875,840.585,824.135,0.000,0.000,0
1512337322.360,830.715,843.875,843.875,824.135,0.000,0.000,0
1512337322.364,801.105,832.360,847.165,718.856,0.000,0.000,0
1512337322.369,796.170,835.650,848.810,718.856,0.000,0.000,0
1512337322.374,827.425,832.360,853.745,824.135,0.000,0.000,0
1512337322.378,843.875,827.425,852.100,876.775,0.000,0.000,0
1512337322.383,829.070,832.360,850.455,771.496,0.000,0.000,0
1512337322.387,802.750,842.230,848.810,718.856,0.000,0.000,0
1512337322.392,812.620,842.230,850.455,771.496,0.000,0.000,0
1512337322.396,866.905,840.585,850.455,876.775,0.000,0.000,0
1512337322.401,847.165,830.715,853.745,876.775,0.000,0.000,0
1512337322.405,792.881,824.135,850.455,771.496,0.000,0.000,0
1512337322.410,809.330,824.135,850.455,771.496,0.000,0.000,0
1512337322.414,838.940,840.585,847.165,876.775,0.000,0.000,0
1512337322.419,871.840,837.295,848.810,929.414,0.000,0.000,0
1512337322.423,827.425,830.715,852.100,824.135,0.000,0.000,0
1512337322.428,804.395,830.715,848.810,771.496,0.000,0.000,0
1512337322.432,827.425,827.425,850.455,824.135,0.000,0.000,0
1512337322.437,852.100,830.715,845.520,929.414,0.000,0.000,0
1512337322.441,837.295,834.005,850.455,876.775,0.000,0.000,0
1512337322.446,827.425,829.070,852.100,771.496,0.000,0.000,0
1512337322.451,820.845,830.715,847.165,771.496,0.000,0.000,0
1512337322.455,863.615,834.005,847.165,876.775,0.000,0.000,0
1512337322.460,863.615,832.360,845.520,876.775,0.000,0.000,0
1512337322.464,817.555,838.940,843.875,771.496,0.000,0.000,0
1512337322.469,825.780,834.005,847.165,771.496,0.000,0.000,0
1512337322.473,845.520,829.070,843.875,824.135,0.000,0.000,0
1512337322.478,861.970,832.360,842.230,876.775,0.000,0.000,0
1512337322.482,832.360,830.715,848.810,771.496,0.000,0.000,0
1512337322.487,820.845,822.490,850.455,718.856,0.000,0.000,0
1512337322.491,835.650,829.070,848.810,824.135,0.000,0.000,0
1512337322.496,858.680,829.070,847.165,982.053,0.000,0.000,0
1512337322.500,853.745,837.295,845.520,982.053,0.000,0.000,0
1512337322.505,829.070,832.360,847.165,876.775,0.000,0.000,0
1512337322.509,830.715,830.715,853.745,876.775,0.000,0.000,0
1512337322.514,863.615,824.135,852.100,929.414,0.000,0.000,0
1512337322.518,863.615,830.715,848.810,929.414,0.000,0.000,0
1512337322.523,830.715,830.715,850.455,824.135,0.000,0.000,0
1512337322.528,814.265,830.715,847.165,771.496,0.000,0.000,0
1512337322.532,845.520,838.940,848.810,876.775,0.000,0.000,0
1512337322.537,871.840,825.780,850.455,982.053,0.000,0.000,0
1512337322.541,852.100,829.070,852.100,929.414,0.000,0.000,0
1512337322.546,820.845,830.715,850.455,824.135,0.000,0.000,0
1512337322.550,834.005,829.070,850.455,824.135,0.000,0.000,0
1512337322.555,866.905,829.070,850.455,929.414,0.000,0.000,0
1512337322.559,876.775,827.425,852.100,929.414,0.000,0.000,0
1512337322.564,832.360,827.425,850.455,876.775,0.000,0.000,0
1512337322.568,827.425,832.360,850.455,929.414,0.000,0.000,0
1512337322.573,848.810,835.650,848.810,982.053,0.000,0.000,0
1512337322.577,891.579,829.070,855.390,1087.332,0.000,0.000,0
1512337322.582,848.810,827.425,857.035,982.053,0.000,0.000,0
1512337322.586,822.490,832.360,852.100,876.775,0.000,0.000,0
1512337322.591,834.005,824.135,852.100,876.775,0.000,0.000,0
1512337322.595,861.970,824.135,850.455,982.053,0.000,0.000,0
1512337322.600,860.325,824.135,847.165,982.053,0.000,0.000,0
1512337322.605,830.715,830.715,850.455,876.775,0.000,0.000,0
1512337322.609,822.490,825.780,852.100,876.775,0.000,0.000,0
1512337322.614,853.745,837.295,850.455,929.414,0.000,0.000,0
1512337322.618,884.999,832.360,855.390,982.053,0.000,0.000,0
1512337322.623,843.875,827.425,855.390,876.775,0.000,0.000,0
1512337322.627,814.265,824.135,853.745,824.135,0.000,0.000,0
1512337322.632,838.940,824.135,853.745,824.135,0.000,0.000,0
1512337322.636,866.905,825.780,850.455,929.414,0.000,0.000,0
1512337322.641,858.680,832.360,850.455,929.414,0.000,0.000,0
1512337322.645,830.715,830.715,853.745,824.135,0.000,0.000,0
1512337322.650,840.585,834.005,850.455,824.135,0.000,0.000,0
1512337322.654,857.035,835.650,847.165,876.775,0.000,0.000,0
1512337322.659,878.419,835.650,847.165,929.414,0.000,0.000,0
1512337322.663,825.780,830.715,847.165,824.135,0.000,0.000,0
1512337322.668,807.685,835.650,845.520,771.496,0.000,0.000,0
1512337322.672,845.520,840.585,848.810,824.135,0.000,0.000,0
1512337322.677,863.615,845.520,840.585,876.775,0.000,0.000,0
1512337322.681,840.585,845.520,842.230,824.135,0.000,0.000,0
1512337322.686,806.040,832.360,848.810,771.496,0.000,0.000,0
1512337322.691,820.845,843.875,847.165,771.496,0.000,0.000,0
1512337322.695,865.260,837.295,848.810,876.775,0.000,0.000,0
1512337322.700,853.745,835.650,847.165,876.775,0.000,0.000,0
1512337322.704,819.200,837.295,845.520,771.496,0.000,0.000,0
1512337322.709,814.265,827.425,845.520,771.496,0.000,0.000,0
1512337322.713,829.070,842.230,845.520,824.135,0.000,0.000,0
1512337322.718,868.550,838.940,845.520,929.414,0.000,0.000,0
1512337322.722,829.070,837.295,848.810,824.135,0.000,0.000,0
1512337322.727,797.815,832.360,852.100,771.496,0.000,0.000,0
1512337322.731,810.975,829.070,847.165,771.496,0.000,0.000,0
1512337322.736,842.230,838.940,847.165,876.775,0.000,0.000,0
1512337322.740,834.005,835.650,850.455,876.775,0.000,0.000,0
1512337322.745,792.881,847.165,847.165,771.496,0.000,0.000,0
1512337322.749,807.685,842.230,857.035,771.496,0.000,0.000,0
1512337322.754,827.425,837.295,855.390,824.135,0.000,0.000,0
1512337322.758,834.005,840.585,855.390,876.775,0.000,0.000,0
1512337322.763,806.040,842.230,857.035,771.496,0.000,0.000,0
1512337322.768,783.011,838.940,860.325,718.856,0.000,0.000,0
1512337322.772,783.011,843.875,863.615,771.496,0.000,0.000,0
1512337322.777,824.135,852.100,865.260,876.775,0.000,0.000,0
1512337322.781,791.236,850.455,863.615,771.496,0.000,0.000,0
1512337322.786,755.046,853.745,865.260,613.578,0.000,0.000,0
1512337322.790,740.241,858.680,865.260,613.578,0.000,0.000,0
1512337322.795,774.786,843.875,880.064,718.856,0.000,0.000,0
1512337322.799,769.851,840.585,888.289,718.856,0.000,0.000,0
1512337322.804,712.276,848.810,881.709,560.938,0.000,0.000,0
1512337322.808,690.892,850.455,876.775,560.938,0.000,0.000,0
1512337322.813,702.407,842.230,883.354,613.578,0.000,0.000,0
1512337322.817,725.436,843.875,883.354,666.217,0.000,0.000,0
1512337322.822,672.797,845.520,891.579,613.578,0.000,0.000,0
1512337322.826,651.412,852.100,889.934,560.938,0.000,0.000,0
1512337322.831,641.542,853.745,884.999,560.938,0.000,0.000,0
1512337322.835,669.507,852.100,886.644,666.217,0.000,0.000,0
1512337322.840,676.087,855.390,896.514,666.217,0.000,0.000,0
1512337322.845,611.933,853.745,899.804,560.938,0.000,0.000,0
1512337322.849,600.418,866.905,896.514,560.938,0.000,0.000,0
1512337322.854,631.672,850.455,898.159,684.312,0.000,0.000,0
1512337322.858,657.992,848.810,899.804,684.312,0.000,0.000,0
1512337322.863,620.158,858.680,904.739,631.672,0.000,0.000,0
1512337322.867,598.773,852.100,901.449,579.033,0.000,0.000,0
1512337322.872,610.288,861.970,908.029,631.672,0.000,0.000,0
1512337322.876,648.122,845.520,909.674,736.951,0.000,0.000,0
1512337322.881,657.992,843.875,903.094,736.951,0.000,0.000,0
1512337322.885,610.288,848.810,901.449,631.672,0.000,0.000,0
1512337322.890,613.578,847.165,899.804,631.672,0.000,0.000,0
1512337322.894,633.317,850.455,896.514,684.312,0.000,0.000,0
1512337322.899,656.347,858.680,901.449,736.951,0.000,0.000,0
1512337322.903,626.737,850.455,901.449,631.672,0.000,0.000,0
1512337322.908,621.803,850.455,899.804,631.672,0.000,0.000,0
1512337322.912,639.897,842.230,903.094,684.312,0.000,0.000,0
1512337322.917,664.572,842.230,901.449,736.951,0.000,0.000,0
1512337322.922,656.347,837.295,901.449,684.312,0.000,0.000,0
1512337322.926,611.933,842.230,896.514,579.033,0.000,0.000,0
1512337322.931,631.672,838.940,896.514,631.672,0.000,0.000,0
1512337322.935,672.797,832.360,898.159,736.951,0.000,0.000,0
1512337322.940,677.732,832.360,898.159,736.951,0.000,0.000,0
1512337322.944,636.607,829.070,898.159,631.672,0.000,0.000,0
1512337322.949,630.027,830.715,896.514,631.672,0.000,0.000,0
1512337322.953,674.442,834.005,893.224,736.951,0.000,0.000,0
1512337322.958,690.892,827.425,899.804,789.591,0.000,0.000,0
1512337322.962,661.282,817.555,899.804,736.951,0.000,0.000,0
1512337322.967,641.542,820.845,903.094,684.312,0.000,0.000,0
1512337322.971,662.927,822.490,901.449,736.951,0.000,0.000,0
1512337322.976,699.117,832.360,894.869,789.591,0.000,0.000,0
1512337322.980,708.987,832.360,896.514,789.591,0.000,0.000,0
1512337322.985,656.347,832.360,898.159,684.312,0.000,0.000,0
1512337322.989,669.507,819.200,896.514,684.312,0.000,0.000,0
1512337322.994,712.276,822.490,894.869,789.591,0.000,0.000,0
1512337322.999,723.791,820.845,898.159,842.230,0.000,0.000,0
1512337323.003,690.892,822.490,893.224,736.951,0.000,0.000,0
1512337323.008,674.442,820.845,896.514,736.951,0.000,0.000,0
1512337323.012,699.117,809.330,894.869,789.591,0.000,0.000,0
1512337323.017,735.306,814.265,889.934,894.869,0.000,0.000,0
1512337323.021,725.436,810.975,896.514,894.869,0.000,0.000,0
1512337323.026,687.602,810.975,889.934,789.591,0.000,0.000,0
1512337323.030,700.762,809.330,888.289,789.591,0.000,0.000,0
1512337323.035,728.726,817.555,886.644,842.230,0.000,0.000,0
1512337323.039,741.886,814.265,889.934,842.230,0.000,0.000,0
1512337323.044,708.987,820.845,888.289,736.951,0.000,0.000,0
1512337323.048,705.697,820.845,889.934,736.951,0.000,0.000,0
1512337323.053,732.016,812.620,888.289,789.591,0.000,0.000,0
1512337323.057,756.691,814.265,884.999,842.230,0.000,0.000,0
1512337323.062,723.791,814.265,886.644,789.591,0.000,0.000,0
1512337323.066,708.987,810.975,888.289,736.951,0.000,0.000,0
1512337323.071,730.371,809.330,888.289,736.951,0.000,0.000,0
1512337323.075,758.336,815.910,886.644,789.591,0.000,0.000,0
1512337323.080,763.271,820.845,886.644,789.591,0.000,0.000,0
1512337323.085,725.436,815.910,886.644,684.312,0.000,0.000,0
1512337323.089,713.921,815.910,881.709,684.312,0.000,0.000,0
1512337323.094,755.046,810.975,884.999,789.591,0.000,0.000,0
1512337323.098,773.141,810.975,880.064,789.591,0.000,0.000,0
1512337323.103,748.466,820.845,880.064,684.312,0.000,0.000,0
1512337323.107,740.241,820.845,886.644,631.672,0.000,0.000,0
1512337323.112,746.821,820.845,881.709,684.312,0.000,0.000,0
1512337323.116,794.526,820.845,884.999,789.591,0.000,0.000,0
1512337323.121,783.011,819.200,878.419,789.591,0.000,0.000,0
1512337323.125,746.821,824.135,878.419,684.312,0.000,0.000,0
1512337323.130,732.016,822.490,880.064,684.312,0.000,0.000,0
1512337323.134,763.271,810.975,878.419,789.591,0.000,0.000,0
1512337323.139,792.881,815.910,876.775,842.230,0.000,0.000,0
1512337323.143,755.046,822.490,878.419,736.951,0.000,0.000,0
1512337323.148,741.886,817.555,878.419,736.951,0.000,0.000,0
1512337323.152,759.981,820.845,875.130,789.591,0.000,0.000,0
1512337323.157,796.170,812.620,878.419,894.869,0.000,0.000,3
1512337323.162,784.656,815.910,875.130,842.230,0.000,0.000,0
1512337323.166,750.111,814.265,873.485,736.951,0.000,0.000,0
1512337323.171,748.466,815.910,868.550,736.951,0.000,0.000,0
1512337323.175,791.236,814.265,875.130,842.230,0.000,0.000,0
1512337323.180,791.236,809.330,876.775,842.230,0.000,0.000,0
1512337323.184,750.111,825.780,876.775,736.951,0.000,0.000,0
1512337323.189,746.821,822.490,880.064,736.951,0.000,0.000,0
1512337323.193,759.981,820.845,870.195,789.591,0.000,0.000,0
1512337323.198,814.265,825.780,876.775,894.869,0.000,0.000,0
1512337323.202,769.851,832.360,873.485,789.591,0.000,0.000,0
1512337323.207,738.596,829.070,876.775,736.951,0.000,0.000,0
1512337323.211,748.466,814.265,878.419,789.591,0.000,0.000,0
1512337323.216,806.040,824.135,873.485,894.869,0.000,0.000,0
1512337323.220,817.555,822.490,870.195,842.230,0.000,0.000,0
1512337323.225,745.176,825.780,876.775,684.312,0.000,0.000,0
1512337323.229,735.306,829.070,873.485,684.312,0.000,0.000,0
1512337323.234,755.046,817.555,871.840,736.951,0.000,0.000,0
1512337323.239,801.105,824.135,873.485,789.591,0.000,0.000,0
1512337323.243,776.431,824.135,875.130,736.951,0.000,0.000,0
1512337323.248,740.241,820.845,875.130,684.312,0.000,0.000,0
1512337323.252,759.981,825.780,871.840,736.951,0.000,0.000,0
1512337323.257,796.170,825.780,870.195,842.230,0.000,0.000,0
1512337323.261,776.431,832.360,865.260,789.591,0.000,0.000,0
1512337323.266,741.886,824.135,870.195,684.312,0.000,0.000,0
1512337323.270,743.531,820.845,868.550,684.312,0.000,0.000,0
1512337323.275,784.656,830.715,866.905,789.591,0.000,0.000,0
1512337323.279,783.011,834.005,863.615,789.591,0.000,0.000,0
1512337323.284,735.306,834.005,868.550,684.312,0.000,0.000,0
1512337323.288,738.596,829.070,870.195,684.312,0.000,0.000,0
1512337323.293,755.046,827.425,866.905,789.591,0.000,0.000,0
1512337323.297,809.330,830.715,866.905,947.509,0.000,0.000,0
1512337323.302,779.721,834.005,863.615,894.869,0.000,0.000,0
1512337323.306,746.821,837.295,865.260,842.230,0.000,0.000,0
1512337323.311,768.206,827.425,866.905,842.230,0.000,0.000,0
1512337323.316,794.526,835.650,860.325,894.869,0.000,0.000,0
1512337323.320,799.460,832.360,865.260,894.869,0.000,0.000,0
1512337323.325,764.916,835.650,860.325,789.591,0.000,0.000,0
1512337323.329,771.496,825.780,860.325,789.591,0.000,0.000,0
1512337323.334,787.946,830.715,853.745,842.230,0.000,0.000,0
1512337323.338,807.685,842.230,853.745,894.869,0.000,0.000,0
1512337323.343,771.496,835.650,855.390,842.230,0.000,0.000,0
1512337323.347,763.271,838.940,857.035,789.591,0.000,0.000,0
1512337323.352,768.206,827.425,853.745,789.591,0.000,0.000,0
1512337323.356,804.395,827.425,853.745,842.230,0.000,0.000,0
1512337323.361,807.685,842.230,852.100,842.230,0.000,0.000,0
1512337323.365,766.561,848.810,853.745,789.591,0.000,0.000,0
1512337323.370,763.271,837.295,857.035,842.230,0.000,0.000,0
1512337323.374,786.301,830.715,855.390,894.869,0.000,0.000,0
1512337323.379,812.620,838.940,853.745,947.509,0.000,0.000,0
1512337323.383,776.431,835.650,858.680,842.230,0.000,0.000,0
1512337323.388,756.691,832.360,848.810,789.591,0.000,0.000,0
1512337323.393,779.721,838.940,852.100,842.230,0.000,0.000,0
1512337323.397,832.360,822.490,860.325,894.869,0.000,0.000,0
1512337323.402,794.526,842.230,850.455,842.230,0.000,0.000,0
1512337323.406,779.721,848.810,853.745,789.591,0.000,0.000,0
1512337323.411,787.946,838.940,848.810,789.591,0.000,0.000,0
1512337323.415,817.555,842.230,848.810,894.869,0.000,0.000,0
1512337323.420,842.230,834.005,853.745,894.869,0.000,0.000,0
1512337323.424,792.881,832.360,855.390,736.951,0.000,0.000,0
1512337323.429,774.786,840.585,847.165,736.951,0.000,0.000,0
1512337323.433,806.040,843.875,843.875,842.230,0.000,0.000,0
1512337323.438,853.745,838.940,843.875,921.189,0.000,0.000,0
1512337323.442,822.490,842.230,842.230,921.189,0.000,0.000,0
1512337323.447,806.040,838.940,847.165,921.189,0.000,0.000,0
1512337323.451,822.490,837.295,842.230,973.828,0.000,0.000,0
1512337323.456,868.550,847.165,835.650,1079.107,0.000,0.000,0
1512337323.460,896.514,838.940,832.360,1079.107,0.000,0.000,0
1512337323.465,850.455,837.295,819.200,973.828,0.000,0.000,0
1512337323.469,873.485,838.940,814.265,973.828,0.000,0.000,0
1512337323.474,919.544,843.875,802.750,1026.468,0.000,0.000,0
1512337323.479,963.958,855.390,794.526,1079.107,0.000,0.000,0
1512337323.483,950.799,845.520,794.526,1026.468,0.000,0.000,0
1512337323.488,939.284,845.520,783.011,973.828,0.000,0.000,0
1512337323.492,959.024,840.585,769.851,973.828,0.000,0.000,0
1512337323.497,1010.018,842.230,763.271,1079.107,0.000,0.000,0
1512337323.501,1013.308,842.230,759.981,1079.107,0.000,0.000,0
1512337323.506,980.408,848.810,751.756,973.828,0.000,0.000,0
1512337323.510,995.213,835.650,751.756,973.828,0.000,0.000,0
1512337323.515,1026.468,840.585,741.886,1079.107,0.000,0.000,0
1512337323.519,1056.077,837.295,740.241,1131.746,0.000,0.000,0
1512337323.524,1013.308,838.940,738.596,1026.468,0.000,0.000,0
1512337323.528,1010.018,852.100,736.951,1026.468,0.000,0.000,0
1512337323.533,1037.983,843.875,740.241,1079.107,0.000,0.000,0
1512337323.537,1072.527,845.520,740.241,1184.386,0.000,0.000,0
1512337323.542,1074.172,843.875,743.531,1131.746,0.000,0.000,0
1512337323.546,1033.048,840.585,743.531,1026.468,0.000,0.000,0
1512337323.551,1041.273,845.520,745.176,1026.468,0.000,0.000,0
1512337323.556,1084.042,842.230,746.821,1131.746,0.000,0.000,0
1512337323.560,1070.882,848.810,748.466,1131.746,0.000,0.000,0
1512337323.565,1041.273,845.520,753.401,1026.468,0.000,0.000,0
1512337323.569,1033.048,840.585,758.336,1026.468,0.000,0.000,0
1512337323.574,1052.787,838.940,758.336,1079.107,0.000,0.000,0
1512337323.578,1080.752,843.875,759.981,1131.746,0.000,0.000,0
1512337323.583,1039.628,838.940,768.206,1079.107,0.000,0.000,0
1512337323.587,1016.598,835.650,768.206,1079.107,0.000,0.000,0
1512337323.592,1028.113,842.230,768.206,1079.107,0.000,0.000,0
1512337323.596,1057.722,838.940,773.141,1184.386,0.000,0.000,0
1512337323.601,1044.562,838.940,774.786,1184.386,0.000,0.000,0
1512337323.605,993.568,840.585,778.076,1079.107,0.000,0.000,0
1512337323.610,1001.793,830.715,781.366,1079.107,0.000,0.000,0
1512337323.614,1011.663,832.360,778.076,1079.107,0.000,0.000,0
1512337323.619,1016.598,843.875,779.721,1131.746,0.000,0.000,0
1512337323.623,977.118,840.585,783.011,1079.107,0.000,0.000,0
1512337323.628,957.379,837.295,787.946,1026.468,0.000,0.000,0
1512337323.633,972.183,835.650,791.236,1079.107,0.000,0.000,0
1512337323.637,1008.373,829.070,792.881,1131.746,0.000,0.000,0
1512337323.642,970.538,838.940,794.526,1079.107,0.000,0.000,0
1512337323.646,934.349,838.940,797.815,973.828,0.000,0.000,0
1512337323.651,944.219,835.650,799.460,973.828,0.000,0.000,0
1512337323.655,970.538,830.715,802.750,1026.468,0.000,0.000,0
1512337323.660,965.603,834.005,801.105,973.828,0.000,0.000,0
1512337323.664,919.544,834.005,806.040,868.550,0.000,0.000,0
1512337323.669,916.254,834.005,807.685,868.550,0.000,0.000,0
1512337323.673,924.479,827.425,809.330,921.189,0.000,0.000,0
1512337323.678,954.089,829.070,809.330,973.828,0.000,0.000,0
1512337323.682,929.414,835.650,812.620,921.189,0.000,0.000,0
1512337323.687,889.934,835.650,815.910,868.550,0.000,0.000,0
1512337323.691,909.674,829.070,820.845,868.550,0.000,0.000,0
1512337323.696,931.059,825.780,817.555,921.189,0.000,0.000,0
1512337323.700,924.479,835.650,815.910,921.189,0.000,0.000,0
1512337323.705,889.934,829.070,822.490,815.910,0.000,0.000,0
1512337323.710,870.195,830.715,820.845,815.910,0.000,0.000,0
1512337323.714,896.514,830.715,819.200,868.550,0.000,0.000,0
1512337323.719,914.609,834.005,820.845,921.189,0.000,0.000,0
1512337323.723,875.130,835.650,827.425,868.550,0.000,0.000,0
1512337323.728,850.455,825.780,829.070,815.910,0.000,0.000,0
1512337323.732,871.840,827.425,824.135,868.550,0.000,0.000,0
1512337323.737,899.804,822.490,825.780,973.828,0.000,0.000,0
1512337323.741,883.354,834.005,824.135,921.189,0.000,0.000,0
1512337323.746,858.680,834.005,830.715,868.550,0.000,0.000,0
1512337323.750,852.100,832.360,832.360,868.550,0.000,0.000,0
1512337323.755,878.419,834.005,834.005,973.828,0.000,0.000,0
1512337323.759,896.514,827.425,835.650,973.828,0.000,0.000,0
1512337323.764,837.295,832.360,835.650,868.550,0.000,0.000,0
1512337323.768,827.425,832.360,837.295,868.550,0.000,0.000,0
1512337323.773,845.520,832.360,830.715,921.189,0.000,0.000,0
1512337323.777,880.064,840.585,832.360,1026.468,0.000,0.000,0
1512337323.782,863.615,829.070,835.650,973.828,0.000,0.000,0
1512337323.787,819.200,830.715,834.005,868.550,0.000,0.000,0
1512337323.791,832.360,834.005,834.005,868.550,0.000,0.000,0
1512337323.796,863.615,837.295,834.005,973.828,0.000,0.000,0
1512337323.800,870.195,837.295,834.005,973.828,0.000,0.000,0
1512337323.805,827.425,829.070,840.585,815.910,0.000,0.000,0
1512337323.809,827.425,829.070,840.585,815.910,0.000,0.000,0
1512337323.814,852.100,830.715,842.230,868.550,0.000,0.000,0
1512337323.818,863.615,838.940,837.295,921.189,0.000,0.000,0
1512337323.823,850.455,845.520,840.585,868.550,0.000,0.000,0
1512337323.827,817.555,829.070,845.520,763.271,0.000,0.000,0
1512337323.832,825.780,827.425,843.875,763.271,0.000,0.000,0
1512337323.836,857.035,835.650,842.230,868.550,0.000,0.000,0
1512337323.841,848.810,840.585,838.940,868.550,0.000,0.000,0
1512337323.845,817.555,845.520,842.230,763.271,0.000,0.000,0
1512337323.850,824.135,840.585,845.520,763.271,0.000,0.000,0
1512337323.854,847.165,832.360,843.875,815.910,0.000,0.000,0
1512337323.859,855.390,840.585,840.585,868.550,0.000,0.000,0
1512337323.863,820.845,840.585,847.165,815.910,0.000,0.000,0
1512337323.868,806.040,835.650,848.810,763.271,0.000,0.000,0
1512337323.873,815.910,835.650,845.520,815.910,0.000,0.000,0
1512337323.877,852.100,838.940,845.520,973.828,0.000,0.000,0
1512337323.882,840.585,837.295,847.165,1026.468,0.000,0.000,0
1512337323.886,809.330,843.875,847.165,921.189,0.000,0.000,0
1512337323.891,810.975,835.650,848.810,921.189,0.000,0.000,0
1512337323.895,837.295,837.295,843.875,973.828,0.000,0.000,0
1512337323.900,861.970,840.585,842.230,973.828,0.000,0.000,0
1512337323.904,810.975,838.940,845.520,868.550,0.000,0.000,0
1512337323.909,812.620,834.005,848.810,868.550,0.000,0.000,0
1512337323.913,819.200,835.650,847.165,868.550,0.000,0.000,0
1512337323.918,855.390,842.230,847.165,973.828,0.000,0.000,0
1512337323.922,835.650,838.940,848.810,921.189,0.000,0.000,0
1512337323.927,787.946,845.520,845.520,815.910,0.000,0.000,0
1512337323.931,806.040,838.940,850.455,868.550,0.000,0.000,0
1512337323.936,834.005,842.230,848.810,921.189,0.000,0.000,0
1512337323.940,853.745,838.940,853.745,921.189,0.000,0.000,0
1512337323.945,807.685,834.005,853.745,815.910,0.000,0.000,0
1512337323.950,799.460,840.585,850.455,815.910,0.000,0.000,0
1512337323.954,830.715,832.360,850.455,868.550,0.000,0.000,0
1512337323.959,843.875,842.230,850.455,921.189,0.000,0.000,0
1512337323.963,824.135,840.585,852.100,868.550,0.000,0.000,0
1512337323.968,796.170,838.940,850.455,815.910,0.000,0.000,0
1512337323.972,814.265,837.295,853.745,868.550,0.000,0.000,0
1512337323.977,848.810,830.715,852.100,921.189,0.000,0.000,0
1512337323.981,829.070,842.230,850.455,921.189,0.000,0.000,0
1512337323.986,804.395,842.230,852.100,815.910,0.000,0.000,0
1512337323.990,796.170,845.520,847.165,815.910,0.000,0.000,0
1512337323.995,838.940,845.520,853.745,921.189,0.000,0.000,0
1512337323.999,853.745,837.295,855.390,973.828,0.000,0.000,0
1512337324.004,807.685,842.230,853.745,868.550,0.000,0.000,0
1512337324.008,801.105,847.165,852.100,815.910,0.000,0.000,0
1512337324.013,812.620,842.230,852.100,868.550,0.000,0.000,0
1512337324.017,848.810,838.940,850.455,921.189,0.000,0.000,0
1512337324.022,832.360,838.940,853.745,861.970,0.000,0.000,0
1512337324.027,794.526,840.585,848.810,809.330,0.000,0.000,0
1512337324.031,802.750,837.295,850.455,809.330,0.000,0.000,0
1512337324.036,832.360,837.295,850.455,914.609,0.000,0.000,0
1512337324.040,850.455,832.360,852.100,914.609,0.000,0.000,0
1512337324.045,807.685,834.005,852.100,809.330,0.000,0.000,0
1512337324.049,794.526,840.585,848.810,756.691,0.000,0.000,0
1512337324.054,817.555,838.940,848.810,809.330,0.000,0.000,0
1512337324.058,845.520,842.230,848.810,861.970,0.000,0.000,0
1512337324.063,827.425,840.585,852.100,809.330,0.000,0.000,0
1512337324.067,794.526,838.940,850.455,756.691,0.000,0.000,0
1512337324.072,801.105,837.295,852.100,756.691,0.000,0.000,0
1512337324.076,832.360,842.230,848.810,861.970,0.000,0.000,0
1512337324.081,834.005,837.295,853.745,861.970,0.000,0.000,0
1512337324.085,792.881,842.230,853.745,756.691,0.000,0.000,0
1512337324.090,791.236,843.875,852.100,756.691,0.000,0.000,0
1512337324.094,820.845,845.520,850.455,861.970,0.000,0.000,0
1512337324.099,842.230,842.230,848.810,967.248,0.000,0.000,0
1512337324.104,809.330,840.585,853.745,914.609,0.000,0.000,0
1512337324.108,791.236,829.070,858.680,809.330,0.000,0.000,0
1512337324.113,802.750,825.780,855.390,809.330,0.000,0.000,0
1512337324.117,834.005,834.005,852.100,861.970,0.000,0.000,0
1512337324.122,815.910,838.940,852.100,861.970,0.000,0.000,0
1512337324.126,774.786,830.715,853.745,756.691,0.000,0.000,0
1512337324.131,779.721,838.940,852.100,756.691,0.000,0.000,0
1512337324.135,817.555,842.230,848.810,861.970,0.000,0.000,0
1512337324.140,829.070,843.875,850.455,914.609,0.000,0.000,0
1512337324.144,792.881,852.100,848.810,861.970,0.000,0.000,0
1512337324.149,781.366,843.875,853.745,861.970,0.000,0.000,0
1512337324.153,807.685,837.295,852.100,914.609,0.000,0.000,0
1512337324.158,835.650,843.875,848.810,967.248,0.000,0.000,0
1512337324.162,814.265,843.875,853.745,914.609,0.000,0.000,0
1512337324.167,787.946,840.585,852.100,809.330,0.000,0.000,0
1512337324.171,799.460,835.650,850.455,861.970,0.000,0.000,0
1512337324.176,840.585,837.295,848.810,1019.888,0.000,0.000,0
1512337324.181,848.810,838.940,847.165,1019.888,0.000,0.000,0
1512337324.185,807.685,842.230,845.520,914.609,0.000,0.000,0
1512337324.190,806.040,835.650,850.455,914.609,0.000,0.000,0
1512337324.194,819.200,830.715,852.100,967.248,0.000,0.000,0
1512337324.199,845.520,838.940,847.165,1019.888,0.000,0.000,0
1512337324.203,817.555,837.295,850.455,914.609,0.000,0.000,0
1512337324.208,778.076,840.585,847.165,861.970,0.000,0.000,0
1512337324.212,809.330,832.360,848.810,914.609,0.000,0.000,0
1512337324.217,832.360,827.425,843.875,967.248,0.000,0.000,0
1512337324.221,827.425,832.360,840.585,967.248,0.000,0.000,0
1512337324.226,794.526,840.585,845.520,861.970,0.000,0.000,0
1512337324.230,796.170,840.585,842.230,861.970,0.000,0.000,0
1512337324.235,822.490,843.875,842.230,914.609,0.000,0.000,0
1512337324.239,848.810,835.650,845.520,967.248,0.000,0.000,0
1512337324.244,812.620,834.005,845.520,914.609,0.000,0.000,0
1512337324.248,781.366,835.650,845.520,861.970,0.000,0.000,0
1512337324.253,810.975,832.360,847.165,914.609,0.000,0.000,0
1512337324.257,840.585,838.940,840.585,967.248,0.000,0.000,0
1512337324.262,827.425,834.005,845.520,967.248,0.000,0.000,0
1512337324.267,796.170,835.650,847.165,861.970,0.000,0.000,0
1512337324.271,802.750,835.650,845.520,861.970,0.000,0.000,0
1512337324.276,834.005,825.780,843.875,914.609,0.000,0.000,0
1512337324.280,840.585,837.295,840.585,914.609,0.000,0.000,0
1512337324.285,807.685,838.940,848.810,809.330,0.000,0.000,0
1512337324.289,786.301,835.650,845.520,756.691,0.000,0.000,1
1512337324.294,815.910,840.585,845.520,809.330,0.000,0.000,0
1512337324.298,847.165,829.070,847.165,861.970,0.000,0.000,0
1512337324.303,822.490,835.650,848.810,809.330,0.000,0.000,0
1512337324.307,784.656,842.230,847.165,756.691,0.000,0.000,0
1512337324.312,802.750,832.360,848.810,809.330,0.000,0.000,0
1512337324.316,850.455,830.715,848.810,914.609,0.000,0.000,0
1512337324.321,850.455,827.425,852.100,914.609,0.000,0.000,0
1512337324.325,804.395,829.070,852.100,809.330,0.000,0.000,0
1512337324.330,783.011,838.940,845.520,809.330,0.000,0.000,0
1512337324.334,822.490,838.940,847.165,914.609,0.000,0.000,0
1512337324.339,852.100,835.650,850.455,967.248,0.000,0.000,0
1512337324.344,820.845,835.650,853.745,861.970,0.000,0.000,0
1512337324.348,787.946,840.585,848.810,809.330,0.000,0.000,0
1512337324.353,807.685,834.005,848.810,861.970,0.000,0.000,0
1512337324.357,842.230,840.585,845.520,914.609,0.000,0.000,0
1512337324.362,835.650,837.295,850.455,914.609,0.000,0.000,0
1512337324.366,796.170,830.715,850.455,809.330,0.000,0.000,0
1512337324.371,794.526,834.005,843.875,809.330,0.000,0.000,0
1512337324.375,827.425,837.295,845.520,914.609,0.000,0.000,0
1512337324.380,847.165,830.715,845.520,914.609,0.000,0.000,0
1512337324.384,802.750,835.650,843.875,809.330,0.000,0.000,0
1512337324.389,791.236,835.650,848.810,756.691,0.000,0.000,0
1512337324.393,825.780,835.650,845.520,809.330,0.000,0.000,0
1512337324.398,857.035,835.650,847.165,861.970,0.000,0.000,0
1512337324.402,827.425,838.940,847.165,861.970,0.000,0.000,0
1512337324.407,797.815,829.070,850.455,756.691,0.000,0.000,0
1512337324.411,794.526,824.135,848.810,756.691,0.000,0.000,0
1512337324.416,838.940,834.005,845.520,861.970,0.000,0.000,0
1512337324.421,842.230,835.650,843.875,861.970,0.000,0.000,0
1512337324.425,802.750,838.940,842.230,756.691,0.000,0.000,0
1512337324.430,802.750,835.650,847.165,756.691,0.000,0.000,0
1512337324.434,822.490,830.715,845.520,809.330,0.000,0.000,0
1512337324.439,857.035,834.005,843.875,861.970,0.000,0.000,0
1512337324.443,817.555,835.650,842.230,809.330,0.000,0.000,0
1512337324.448,784.656,840.585,842.230,756.691,0.000,0.000,0
1512337324.452,801.105,842.230,840.585,809.330,0.000,0.000,0
1512337324.457,852.100,832.360,847.165,914.609,0.000,0.000,0
1512337324.461,837.295,834.005,847.165,861.970,0.000,0.000,0
1512337324.466,797.815,837.295,847.165,756.691,0.000,0.000,0
1512337324.470,792.881,830.715,847.165,756.691,0.000,0.000,0
1512337324.475,815.910,842.230,847.165,835.650,0.000,0.000,0
1512337324.479,842.230,834.005,850.455,914.609,0.000,0.000,0
1512337324.484,809.330,837.295,850.455,809.330,0.000,0.000,0
1512337324.488,791.236,834.005,853.745,783.011,0.000,0.000,0
1512337324.493,809.330,830.715,850.455,809.330,0.000,0.000,0
1512337324.498,845.520,837.295,850.455,914.609,0.000,0.000,0
1512337324.502,827.425,832.360,852.100,888.289,0.000,0.000,0
1512337324.507,789.591,842.230,845.520,783.011,0.000,0.000,0
1512337324.511,802.750,837.295,850.455,809.330,0.000,0.000,0
1512337324.516,838.940,834.005,852.100,888.289,0.000,0.000,0
1512337324.520,845.520,835.650,850.455,914.609,0.000,0.000,0
1512337324.525,799.460,838.940,848.810,783.011,0.000,0.000,0
1512337324.529,794.526,838.940,850.455,756.691,0.000,0.000,0
1512337324.534,804.395,842.230,843.875,861.970,0.000,0.000,0
1512337324.538,850.455,837.295,850.455,967.248,0.000,0.000,0
1512337324.543,815.910,835.650,850.455,914.609,0.000,0.000,0
1512337324.547,787.946,845.520,847.165,809.330,0.000,0.000,0
1512337324.552,804.395,838.940,852.100,809.330,0.000,0.000,0
1512337324.556,838.940,837.295,850.455,861.970,0.000,0.000,0
1512337324.561,830.715,835.650,847.165,861.970,0.000,0.000,0
1512337324.565,778.076,843.875,845.520,756.691,0.000,0.000,0
1512337324.570,792.881,845.520,843.875,756.691,0.000,0.000,0
1512337324.575,827.425,842.230,848.810,861.970,0.000,0.000,0
1512337324.579,855.390,832.360,857.035,914.609,0.000,0.000,0
1512337324.584,807.685,834.005,852.100,809.330,0.000,0.000,0
1512337324.588,781.366,837.295,848.810,756.691,0.000,0.000,0
1512337324.593,810.975,845.520,843.875,809.330,0.000,0.000,0
1512337324.597,858.680,838.940,847.165,914.609,0.000,0.000,0
1512337324.602,845.520,832.360,852.100,914.609,0.000,0.000,0
1512337324.606,789.591,842.230,850.455,758.336,0.000,0.000,0
1512337324.611,779.721,837.295,848.810,810.975,0.000,0.000,0
1512337324.615,809.330,842.230,842.230,916.254,0.000,0.000,0
1512337324.620,845.520,843.875,848.810,1021.533,0.000,0.000,0
1512337324.624,810.975,832.360,852.100,916.254,0.000,0.000,0
1512337324.629,787.946,838.940,848.810,863.615,0.000,0.000,0
1512337324.633,810.975,835.650,852.100,916.254,0.000,0.000,0
1512337324.638,845.520,834.005,848.810,968.893,0.000,0.000,0
1512337324.642,824.135,832.360,850.455,916.254,0.000,0.000,0
1512337324.647,781.366,842.230,845.520,810.975,0.000,0.000,0
1512337324.652,789.591,840.585,850.455,810.975,0.000,0.000,0
1512337324.656,832.360,838.940,847.165,916.254,0.000,0.000,0
1512337324.661,847.165,837.295,850.455,916.254,0.000,0.000,0
1512337324.665,809.330,829.070,853.745,810.975,0.000,0.000,0
1512337324.670,789.591,830.715,850.455,758.336,0.000,0.000,0
1512337324.674,799.460,834.005,850.455,810.975,0.000,0.000,0
1512337324.679,843.875,830.715,853.745,916.254,0.000,0.000,0
1512337324.683,815.910,830.715,853.745,810.975,0.000,0.000,0
1512337324.688,789.591,830.715,850.455,758.336,0.000,0.000,0
1512337324.692,796.170,835.650,845.520,758.336,0.000,0.000,0
1512337324.697,837.295,835.650,850.455,863.615,0.000,0.000,0
1512337324.701,827.425,832.360,850.455,863.615,0.000,0.000,0
1512337324.706,794.526,829.070,853.745,758.336,0.000,0.000,0
1512337324.710,787.946,830.715,848.810,758.336,0.000,0.000,0
1512337324.715,820.845,834.005,847.165,810.975,0.000,0.000,0
1512337324.719,838.940,832.360,845.520,863.615,0.000,0.000,0
1512337324.724,802.750,838.940,847.165,810.975,0.000,0.000,0
1512337324.728,787.946,829.070,850.455,758.336,0.000,0.000,0
1512337324.733,801.105,830.715,845.520,758.336,0.000,0.000,0
1512337324.738,838.940,834.005,845.520,863.615,0.000,0.000,0
1512337324.742,822.490,842.230,847.165,863.615,0.000,0.000,0
1512337324.747,792.881,837.295,847.165,758.336,0.000,0.000,0
1512337324.751,791.236,843.875,843.875,758.336,0.000,0.000,0
1512337324.756,832.360,838.940,847.165,916.254,0.000,0.000,0
1512337324.760,845.520,830.715,845.520,916.254,0.000,0.000,0
1512337324.765,799.460,837.295,847.165,810.975,0.000,0.000,0
1512337324.769,787.946,830.715,845.520,758.336,0.000,0.000,0
1512337324.774,806.040,837.295,842.230,810.975,0.000,0.000,0
1512337324.778,842.230,830.715,845.520,916.254,0.000,0.000,0
1512337324.783,810.975,832.360,848.810,863.615,0.000,0.000,0
1512337324.787,791.236,829.070,852.100,810.975,0.000,0.000,0
1512337324.792,801.105,827.425,848.810,810.975,0.000,0.000,0
1512337324.796,829.070,837.295,845.520,863.615,0.000,0.000,0
1512337324.801,835.650,834.005,848.810,863.615,0.000,0.000,0
1512337324.805,792.881,827.425,850.455,758.336,0.000,0.000,0
1512337324.810,787.946,829.070,848.810,758.336,0.000,0.000,0
1512337324.815,812.620,829.070,847.165,810.975,0.000,0.000,0
1512337324.819,843.875,840.585,843.875,863.615,0.000,0.000,0
1512337324.824,806.040,845.520,847.165,810.975,0.000,0.000,0
1512337324.828,786.301,842.230,850.455,758.336,0.000,0.000,0
1512337324.833,804.395,837.295,850.455,810.975,0.000,0.000,0
1512337324.837,834.005,837.295,848.810,916.254,0.000,0.000,0
1512337324.842,837.295,842.230,845.520,916.254,0.000,0.000,0
1512337324.846,789.591,838.940,848.810,810.975,0.000,0.000,0
1512337324.851,794.526,838.940,848.810,810.975,0.000,0.000,1
1512337324.855,820.845,830.715,847.165,863.615,0.000,0.000,0
1512337324.860,837.295,837.295,848.810,863.615,0.000,0.000,0
1512337324.864,797.815,848.810,843.875,758.336,0.000,0.000,0
1512337324.869,783.011,848.810,842.230,758.336,0.000,0.000,0
1512337324.873,807.685,840.585,845.520,810.975,0.000,0.000,0
1512337324.878,847.165,834.005,847.165,916.254,0.000,0.000,0
1512337324.882,825.780,830.715,850.455,863.615,0.000,0.000,0
1512337324.887,783.011,834.005,848.810,758.336,0.000,0.000,0
1512337324.892,781.366,838.940,845.520,758.336,0.000,0.000,0
1512337324.896,824.135,837.295,845.520,863.615,0.000,0.000,0
1512337324.901,842.230,834.005,845.520,916.254,0.000,0.000,0
1512337324.905,792.881,840.585,847.165,863.615,0.000,0.000,0
1512337324.910,786.301,840.585,850.455,863.615,0.000,0.000,0
1512337324.914,807.685,837.295,847.165,916.254,0.000,0.000,0
1512337324.919,840.585,843.875,848.810,968.893,0.000,0.000,0
1512337324.923,817.555,835.650,850.455,916.254,0.000,0.000,0
1512337324.928,792.881,845.520,845.520,810.975,0.000,0.000,0
1512337324.932,812.620,843.875,848.810,863.615,0.000,0.000,0
1512337324.937,834.005,838.940,848.810,916.254,0.000,0.000,0
1512337324.941,842.230,843.875,850.455,916.254,0.000,0.000,0
1512337324.946,797.815,838.940,848.810,810.975,0.000,0.000,0
1512337324.950,794.526,838.940,848.810,810.975,0.000,0.000,0
1512337324.955,820.845,838.940,848.810,863.615,0.000,0.000,0
1512337324.959,840.585,842.230,848.810,916.254,0.000,0.000,0
1512337324.964,801.105,845.520,848.810,810.975,0.000,0.000,0
1512337324.969,794.526,850.455,848.810,758.336,0.000,0.000,0
1512337324.973,810.975,837.295,850.455,863.615,0.000,0.000,0
1512337324.978,843.875,838.940,848.810,916.254,0.000,0.000,0
1512337324.982,835.650,838.940,852.100,916.254,0.000,0.000,0
1512337324.987,797.815,838.940,847.165,810.975,0.000,0.000,0
1512337324.991,796.170,843.875,848.810,810.975,0.000,0.000,0
1512337324.996,819.200,834.005,848.810,916.254,0.000,0.000,0
1512337325.000,835.650,837.295,850.455,968.893,0.000,0.000,0
1512337325.005,806.040,832.360,853.745,863.615,0.000,0.000,0
1512337325.009,787.946,834.005,852.100,810.975,0.000,0.000,0
1512337325.014,810.975,842.230,847.165,863.615,0.000,0.000,0
1512337325.018,845.520,837.295,850.455,916.254,0.000,0.000,0
1512337325.023,815.910,845.520,847.165,863.615,0.000,0.000,0
1512337325.027,797.815,838.940,850.455,810.975,0.000,0.000,0
1512337325.032,796.170,835.650,850.455,810.975,0.000,0.000,0
1512337325.036,825.780,837.295,848.810,916.254,0.000,0.000,0
1512337325.041,829.070,840.585,850.455,916.254,0.000,0.000,0
1512337325.046,806.040,837.295,850.455,810.975,0.000,0.000,0
1512337325.050,794.526,838.940,848.810,810.975,0.000,0.000,0
1512337325.055,819.200,838.940,848.810,863.615,0.000,0.000,0
1512337325.059,848.810,837.295,852.100,916.254,0.000,0.000,0
1512337325.064,809.330,838.940,852.100,863.615,0.000,0.000,0
1512337325.068,792.881,840.585,852.100,810.975,0.000,0.000,0
1512337325.073,809.330,830.715,852.100,810.975,0.000,0.000,0
1512337325.077,834.005,838.940,847.165,863.615,0.000,0.000,0
1512337325.082,830.715,847.165,848.810,863.615,0.000,0.000,0
1512337325.086,804.395,848.810,848.810,758.336,0.000,0.000,0
1512337325.091,807.685,838.940,852.100,758.336,0.000,0.000,0
1512337325.095,838.940,834.005,850.455,810.975,0.000,0.000,0
1512337325.100,863.615,837.295,848.810,863.615,0.000,0.000,0
1512337325.104,810.975,842.230,848.810,758.336,0.000,0.000,0
1512337325.109,787.946,847.165,847.165,758.336,0.000,0.000,0
1512337325.113,815.910,835.650,850.455,810.975,0.000,0.000,0
1512337325.118,847.165,840.585,847.165,810.975,0.000,0.000,0
1512337325.122,829.070,838.940,847.165,810.975,0.000,0.000,0
1512337325.127,801.105,840.585,850.455,758.336,0.000,0.000,0
1512337325.132,796.170,842.230,852.100,758.336,0.000,0.000,0
1512337325.136,837.295,832.360,850.455,863.615,0.000,0.000,0
1512337325.141,845.520,834.005,848.810,863.615,0.000,0.000,0
1512337325.145,804.395,842.230,845.520,758.336,0.000,0.000,0
1512337325.150,799.460,835.650,848.810,758.336,0.000,0.000,0
1512337325.154,815.910,838.940,847.165,810.975,0.000,0.000,0
1512337325.159,858.680,840.585,843.875,916.254,0.000,0.000,0
1512337325.163,825.780,840.585,838.940,863.615,0.000,0.000,0
1512337325.168,796.170,843.875,843.875,810.975,0.000,0.000,0
1512337325.172,802.750,834.005,845.520,810.975,0.000,0.000,0
1512337325.177,843.875,838.940,843.875,863.615,0.000,0.000,0
1512337325.181,852.100,835.650,848.810,863.615,0.000,0.000,0
1512337325.186,809.330,837.295,847.165,758.336,0.000,0.000,0
1512337325.190,806.040,843.875,850.455,751.756,0.000,0.000,0
1512337325.195,832.360,837.295,850.455,857.035,0.000,0.000,0
1512337325.199,855.390,837.295,847.165,909.674,0.000,0.000,0
1512337325.204,822.490,845.520,848.810,804.395,0.000,0.000,0
1512337325.209,806.040,845.520,850.455,751.756,0.000,0.000,0
1512337325.213,817.555,838.940,850.455,804.395,0.000,0.000,0
1512337325.218,855.390,838.940,850.455,909.674,0.000,0.000,0
1512337325.222,850.455,830.715,853.745,909.674,0.000,0.000,0
1512337325.227,794.526,837.295,845.520,804.395,0.000,0.000,0
1512337325.231,796.170,838.940,848.810,804.395,0.000,0.000,0
1512337325.236,840.585,837.295,850.455,857.035,0.000,0.000,0
1512337325.240,850.455,847.165,848.810,909.674,0.000,0.000,0
1512337325.245,820.845,837.295,853.745,804.395,0.000,0.000,0
1512337325.249,796.170,843.875,850.455,751.756,0.000,0.000,0
1512337325.254,810.975,843.875,847.165,804.395,0.000,0.000,0
1512337325.258,852.100,843.875,852.100,909.674,0.000,0.000,0
1512337325.263,829.070,847.165,850.455,857.035,0.000,0.000,0
1512337325.267,797.815,847.165,850.455,857.035,0.000,0.000,0
1512337325.272,817.555,834.005,858.680,909.674,0.000,0.000,0
1512337325.276,842.230,825.780,857.035,962.313,0.000,0.000,0
1512337325.281,837.295,838.940,852.100,962.313,0.000,0.000,0
1512337325.286,797.815,838.940,853.745,857.035,0.000,0.000,0
1512337325.290,792.881,834.005,848.810,804.395,0.000,0.000,0
1512337325.295,810.975,843.875,843.875,857.035,0.000,0.000,0
1512337325.299,845.520,842.230,845.520,909.674,0.000,0.000,0
1512337325.304,824.135,843.875,842.230,857.035,0.000,0.000,0
1512337325.308,801.105,837.295,847.165,804.395,0.000,0.000,0
1512337325.313,807.685,830.715,850.455,804.395,0.000,0.000,0
1512337325.317,842.230,832.360,848.810,909.674,0.000,0.000,0
1512337325.322,829.070,840.585,845.520,909.674,0.000,0.000,0
1512337325.326,802.750,845.520,847.165,804.395,0.000,0.000,0
1512337325.331,801.105,832.360,850.455,804.395,0.000,0.000,0
1512337325.335,820.845,832.360,843.875,857.035,0.000,0.000,0
1512337325.340,845.520,842.230,843.875,909.674,0.000,0.000,0
1512337325.344,814.265,838.940,845.520,804.395,0.000,0.000,0
1512337325.349,797.815,840.585,847.165,751.756,0.000,0.000,0
1512337325.353,809.330,838.940,848.810,804.395,0.000,0.000,0
1512337325.358,853.745,842.230,847.165,909.674,0.000,0.000,0
1512337325.363,837.295,840.585,847.165,909.674,0.000,0.000,0
1512337325.367,799.460,838.940,850.455,804.395,0.000,0.000,0
1512337325.372,809.330,830.715,853.745,804.395,0.000,0.000,0
1512337325.376,829.070,830.715,847.165,857.035,0.000,0.000,1
1512337325.381,848.810,837.295,845.520,857.035,0.000,0.000,0
1512337325.385,810.975,840.585,843.875,751.756,0.000,0.000,0
1512337325.390,784.656,840.585,842.230,751.756,0.000,0.000,0
1512337325.394,810.975,837.295,847.165,804.395,0.000,0.000,0
1512337325.399,843.875,837.295,847.165,857.035,0.000,0.000,0
1512337325.403,819.200,843.875,845.520,804.395,0.000,0.000,0
1512337325.408,796.170,843.875,848.810,751.756,0.000,0.000,0
1512337325.412,797.815,837.295,847.165,804.395,0.000,0.000,0
1512337325.417,832.360,837.295,847.165,962.313,0.000,0.000,0
1512337325.421,838.940,842.230,847.165,962.313,0.000,0.000,0
1512337325.426,802.750,842.230,847.165,857.035,0.000,0.000,0
1512337325.430,797.815,840.585,845.520,857.035,0.000,0.000,0
1512337325.435,827.425,837.295,848.810,909.674,0.000,0.000,0
1512337325.440,842.230,827.425,848.810,962.313,0.000,0.000,0
1512337325.444,802.750,834.005,842.230,857.035,0.000,0.000,0
1512337325.449,787.946,837.295,847.165,804.395,0.000,0.000,0
1512337325.453,791.236,840.585,838.940,804.395,0.000,0.000,0
1512337325.458,835.650,842.230,843.875,909.674,0.000,0.000,0
1512337325.462,830.715,842.230,843.875,909.674,0.000,0.000,0
1512337325.467,799.460,845.520,847.165,804.395,0.000,0.000,0
1512337325.471,797.815,830.715,850.455,804.395,0.000,0.000,0
1512337325.476,819.200,838.940,845.520,857.035,0.000,0.000,0
1512337325.480,837.295,832.360,848.810,909.674,0.000,0.000,0
1512337325.485,791.236,834.005,842.230,857.035,0.000,0.000,0
1512337325.489,787.946,838.940,845.520,857.035,0.000,0.000,0
1512337325.494,809.330,830.715,845.520,909.674,0.000,0.000,0
1512337325.498,837.295,834.005,843.875,962.313,0.000,0.000,0
1512337325.503,832.360,830.715,852.100,962.313,0.000,0.000,0
1512337325.507,789.591,830.715,845.520,857.035,0.000,0.000,0
1512337325.512,796.170,838.940,848.810,857.035,0.000,0.000,0
1512337325.516,825.780,830.715,852.100,909.674,0.000,0.000,0
1512337325.521,822.490,843.875,845.520,909.674,0.000,0.000,0
1512337325.526,794.526,834.005,852.100,804.395,0.000,0.000,0
1512337325.530,789.591,835.650,850.455,804.395,0.000,0.000,0
1512337325.535,812.620,835.650,847.165,857.035,0.000,0.000,0
1512337325.539,835.650,837.295,847.165,909.674,0.000,0.000,0
1512337325.544,817.555,834.005,850.455,857.035,0.000,0.000,0
1512337325.548,786.301,832.360,847.165,804.395,0.000,0.000,0
1512337325.553,789.591,837.295,847.165,804.395,0.000,0.000,0
1512337325.557,834.005,838.940,850.455,962.313,0.000,0.000,0
1512337325.562,837.295,838.940,848.810,962.313,0.000,0.000,0
1512337325.566,801.105,830.715,853.745,857.035,0.000,0.000,0
1512337325.571,791.236,829.070,850.455,857.035,0.000,0.000,0
1512337325.575,797.815,842.230,845.520,909.674,0.000,0.000,0
1512337325.580,835.650,842.230,848.810,962.313,0.000,0.000,0
1512337325.584,807.685,837.295,850.455,909.674,0.000,0.000,0
1512337325.589,796.170,827.425,850.455,857.035,0.000,0.000,0
1512337325.593,801.105,829.070,845.520,857.035,0.000,0.000,0
1512337325.598,829.070,843.875,842.230,962.313,0.000,0.000,0
1512337325.603,830.715,843.875,843.875,962.313,0.000,0.000,0
1512337325.607,794.526,837.295,845.520,857.035,0.000,0.000,0
1512337325.612,801.105,838.940,848.810,857.035,0.000,0.000,0
1512337325.616,819.200,832.360,848.810,909.674,0.000,0.000,0
1512337325.621,820.845,837.295,847.165,909.674,0.000,0.000,0
1512337325.625,799.460,838.940,847.165,804.395,0.000,0.000,0
1512337325.630,787.946,837.295,843.875,857.035,0.000,0.000,0
1512337325.634,807.685,837.295,845.520,909.674,0.000,0.000,0
1512337325.639,837.295,842.230,847.165,962.313,0.000,0.000,0
1512337325.643,810.975,838.940,848.810,909.674,0.000,0.000,0
1512337325.648,787.946,838.940,848.810,804.395,0.000,0.000,0
1512337325.652,804.395,834.005,853.745,804.395,0.000,0.000,0
1512337325.657,834.005,829.070,852.100,857.035,0.000,0.000,0
1512337325.661,825.780,834.005,850.455,857.035,0.000,0.000,0
1512337325.666,787.946,835.650,848.810,751.756,0.000,0.000,0
1512337325.670,787.946,842.230,847.165,751.756,0.000,0.000,0
1512337325.675,824.135,838.940,848.810,857.035,0.000,0.000,0
1512337325.680,837.295,837.295,848.810,909.674,0.000,0.000,0
1512337325.684,810.975,838.940,850.455,857.035,0.000,0.000,0
1512337325.689,799.460,842.230,848.810,804.395,0.000,0.000,0
1512337325.693,802.750,835.650,848.810,804.395,0.000,0.000,0
1512337325.698,843.875,834.005,850.455,909.674,0.000,0.000,0
1512337325.702,827.425,832.360,850.455,935.994,0.000,0.000,0
1512337325.707,786.301,838.940,848.810,830.715,0.000,0.000,0
1512337325.711,799.460,835.650,847.165,830.715,0.000,0.000,0
1512337325.716,829.070,835.650,847.165,909.674,0.000,0.000,0
1512337325.720,850.455,832.360,852.100,962.313,0.000,0.000,0
1512337325.725,802.750,835.650,848.810,830.715,0.000,0.000,0
1512337325.729,792.881,838.940,852.100,778.076,0.000,0.000,0
1512337325.734,804.395,835.650,847.165,804.395,0.000,0.000,0
1512337325.738,837.295,843.875,843.875,909.674,0.000,0.000,0
1512337325.743,827.425,834.005,848.810,883.354,0.000,0.000,0
1512337325.747,792.881,834.005,847.165,778.076,0.000,0.000,0
1512337325.752,786.301,834.005,843.875,778.076,0.000,0.000,0
1512337325.757,815.910,837.295,843.875,883.354,0.000,0.000,0
1512337325.761,842.230,837.295,845.520,909.674,0.000,0.000,0
1512337325.766,794.526,837.295,843.875,778.076,0.000,0.000,0
1512337325.770,792.881,838.940,842.230,751.756,0.000,0.000,0
1512337325.775,815.910,838.940,843.875,835.650,0.000,0.000,0
1512337325.779,840.585,838.940,845.520,888.289,0.000,0.000,0
1512337325.784,820.845,840.585,848.810,835.650,0.000,0.000,0
1512337325.788,792.881,840.585,848.810,783.011,0.000,0.000,0
1512337325.793,801.105,840.585,850.455,783.011,0.000,0.000,0
1512337325.797,835.650,843.875,847.165,888.289,0.000,0.000,0
1512337325.802,847.165,837.295,855.390,888.289,0.000,0.000,0
1512337325.806,797.815,835.650,848.810,730.371,0.000,0.000,0
1512337325.811,791.236,842.230,845.520,730.371,0.000,0.000,0
1512337325.815,814.265,825.780,850.455,783.011,0.000,0.000,0
1512337325.820,842.230,830.715,847.165,835.650,0.000,0.000,0
1512337325.824,812.620,832.360,852.100,783.011,0.000,0.000,0
1512337325.829,789.591,837.295,852.100,730.371,0.000,0.000,0
1512337325.834,806.040,845.520,847.165,783.011,0.000,0.000,0
1512337325.838,834.005,843.875,847.165,888.289,0.000,0.000,0
1512337325.843,827.425,842.230,850.455,888.289,0.000,0.000,0
1512337325.847,787.946,840.585,848.810,783.011,0.000,0.000,0
1512337325.852,787.946,840.585,847.165,835.650,0.000,0.000,0
1512337325.856,825.780,835.650,845.520,940.929,0.000,0.000,0
1512337325.861,829.070,835.650,843.875,940.929,0.000,0.000,0
1512337325.865,802.750,834.005,850.455,888.289,0.000,0.000,0
1512337325.870,791.236,817.555,853.745,888.289,0.000,0.000,0
1512337325.874,799.460,820.845,848.810,940.929,0.000,0.000,0
1512337325.879,835.650,842.230,843.875,993.568,0.000,0.000,0
1512337325.883,820.845,842.230,848.810,940.929,0.000,0.000,0
1512337325.888,783.011,845.520,847.165,835.650,0.000,0.000,0
1512337325.892,797.815,838.940,848.810,835.650,0.000,0.000,0
1512337325.897,834.005,829.070,845.520,940.929,0.000,0.000,0
1512337325.901,825.780,840.585,840.585,940.929,0.000,0.000,0
1512337325.906,794.526,838.940,847.165,835.650,0.000,0.000,0
1512337325.910,786.301,834.005,845.520,835.650,0.000,0.000,0
1512337325.915,815.910,834.005,845.520,888.289,0.000,0.000,0
1512337325.920,843.875,838.940,842.230,940.929,0.000,0.000,0
1512337325.924,822.490,843.875,845.520,888.289,0.000,0.000,0
1512337325.929,787.946,838.940,847.165,835.650,0.000,0.000,0
1512337325.933,794.526,840.585,847.165,835.650,0.000,0.000,0
1512337325.938,834.005,842.230,845.520,940.929,0.000,0.000,0
1512337325.942,834.005,843.875,843.875,940.929,0.000,0.000,0
1512337325.947,792.881,842.230,847.165,835.650,0.000,0.000,0
1512337325.951,799.460,830.715,850.455,835.650,0.000,0.000,0
1512337325.956,815.910,832.360,845.520,888.289,0.000,0.000,0
1512337325.960,832.360,838.940,845.520,940.929,0.000,0.000,0
1512337325.965,817.555,837.295,853.745,835.650,0.000,0.000,0
1512337325.969,789.591,843.875,848.810,783.011,0.000,0.000,0
1512337325.974,807.685,837.295,852.100,835.650,0.000,0.000,0
1512337325.978,835.650,842.230,847.165,888.289,0.000,0.000,0
1512337325.983,829.070,845.520,847.165,888.289,0.000,0.000,0
1512337325.987,801.105,832.360,850.455,783.011,0.000,0.000,0
1512337325.992,796.170,834.005,845.520,783.011,0.000,0.000,0
1512337325.997,834.005,830.715,847.165,888.289,0.000,0.000,0
1512337326.001,832.360,832.360,843.875,888.289,0.000,0.000,0
1512337326.006,809.330,838.940,848.810,783.011,0.000,0.000,0
1512337326.010,791.236,834.005,845.520,783.011,0.000,0.000,0
1512337326.015,804.395,830.715,842.230,835.650,0.000,0.000,0
1512337326.019,842.230,827.425,848.810,888.289,0.000,0.000,0
1512337326.024,802.750,834.005,847.165,835.650,0.000,0.000,1
1512337326.028,774.786,835.650,850.455,783.011,0.000,0.000,0
1512337326.033,794.526,834.005,852.100,783.011,0.000,0.000,0
1512337326.037,817.555,840.585,843.875,888.289,0.000,0.000,0
1512337326.042,838.940,834.005,848.810,888.289,0.000,0.000,0
1512337326.046,797.815,834.005,852.100,783.011,0.000,0.000,0
1512337326.051,787.946,835.650,852.100,783.011,0.000,0.000,0
1512337326.055,819.200,834.005,850.455,888.289,0.000,0.000,0
1512337326.060,848.810,832.360,852.100,940.929,0.000,0.000,0
1512337326.064,815.910,837.295,848.810,835.650,0.000,0.000,0
1512337326.069,794.526,842.230,848.810,835.650,0.000,0.000,0
1512337326.074,810.975,837.295,850.455,940.929,0.000,0.000,0
1512337326.078,837.295,840.585,843.875,993.568,0.000,0.000,0
1512337326.083,830.715,842.230,853.745,993.568,0.000,0.000,0
1512337326.087,794.526,830.715,853.745,888.289,0.000,0.000,0
1512337326.092,781.366,834.005,850.455,888.289,0.000,0.000,0
1512337326.096,822.490,834.005,853.745,993.568,0.000,0.000,0
1512337326.101,842.230,830.715,852.100,993.568,0.000,0.000,0
1512337326.105,806.040,834.005,855.390,888.289,0.000,0.000,0
1512337326.110,787.946,838.940,850.455,835.650,0.000,0.000,0
1512337326.114,799.460,829.070,848.810,888.289,0.000,0.000,0
1512337326.119,827.425,837.295,847.165,940.929,0.000,0.000,0
1512337326.123,819.200,840.585,852.100,940.929,0.000,0.000,0
1512337326.128,792.881,835.650,850.455,835.650,0.000,0.000,0
1512337326.132,796.170,835.650,848.810,835.650,0.000,0.000,0
1512337326.137,820.845,837.295,843.875,888.289,0.000,0.000,0
1512337326.141,832.360,832.360,848.810,888.289,0.000,0.000,0
1512337326.146,787.946,834.005,848.810,783.011,0.000,0.000,0
1512337326.151,781.366,838.940,847.165,783.011,0.000,0.000,0
1512337326.155,812.620,835.650,845.520,835.650,0.000,0.000,0
1512337326.160,837.295,832.360,843.875,888.289,0.000,0.000,0
1512337326.164,802.750,834.005,843.875,835.650,0.000,0.000,0
1512337326.169,786.301,827.425,850.455,783.011,0.000,0.000,0
1512337326.173,794.526,835.650,847.165,783.011,0.000,0.000,0
1512337326.178,837.295,837.295,848.810,888.289,0.000,0.000,0
1512337326.182,832.360,834.005,845.520,888.289,0.000,0.000,0
1512337326.187,791.236,838.940,845.520,783.011,0.000,0.000,0
1512337326.191,796.170,835.650,845.520,783.011,0.000,0.000,0
1512337326.196,817.555,840.585,843.875,835.650,0.000,0.000,0
1512337326.200,843.875,838.940,852.100,888.289,0.000,0.000,0
1512337326.205,801.105,829.070,847.165,783.011,0.000,0.000,0
1512337326.209,776.431,830.715,845.520,730.371,0.000,0.000,0
1512337326.214,797.815,827.425,845.520,835.650,0.000,0.000,0
1512337326.218,822.490,837.295,840.585,940.929,0.000,0.000,0
1512337326.223,824.135,834.005,847.165,993.568,0.000,0.000,0
1512337326.228,787.946,834.005,847.165,940.929,0.000,0.000,0
1512337326.232,797.815,835.650,847.165,940.929,0.000,0.000,0
1512337326.237,817.555,824.135,850.455,993.568,0.000,0.000,0
1512337326.241,829.070,832.360,842.230,993.568,0.000,0.000,0
1512337326.246,799.460,830.715,848.810,888.289,0.000,0.000,0
1512337326.250,778.076,834.005,843.875,835.650,0.000,0.000,0
1512337326.255,807.685,837.295,845.520,888.289,0.000,0.000,0
1512337326.259,834.005,824.135,850.455,940.929,0.000,0.000,0
1512337326.264,807.685,834.005,848.810,888.289,0.000,0.000,0
1512337326.268,787.946,832.360,852.100,783.011,0.000,0.000,0
1512337326.273,791.236,834.005,847.165,783.011,0.000,0.000,0
1512337326.277,822.490,842.230,845.520,888.289,0.000,0.000,0
1512337326.282,825.780,834.005,848.810,888.289,0.000,0.000,0
1512337326.286,787.946,843.875,843.875,835.650,0.000,0.000,0
1512337326.291,789.591,838.940,848.810,835.650,0.000,0.000,0
1512337326.295,812.620,843.875,845.520,888.289,0.000,0.000,0
1512337326.300,848.810,835.650,850.455,993.568,0.000,0.000,0
1512337326.304,812.620,830.715,847.165,888.289,0.000,0.000,0
1512337326.309,792.881,838.940,845.520,835.650,0.000,0.000,0
1512337326.314,802.750,829.070,848.810,888.289,0.000,0.000,0
1512337326.318,842.230,829.070,850.455,940.929,0.000,0.000,0
1512337326.323,832.360,837.295,850.455,940.929,0.000,0.000,0
1512337326.327,804.395,838.940,853.745,835.650,0.000,0.000,0
1512337326.332,806.040,835.650,848.810,835.650,0.000,0.000,0
1512337326.336,820.845,840.585,847.165,888.289,0.000,0.000,0
1512337326.341,845.520,832.360,850.455,940.929,0.000,0.000,0
1512337326.345,809.330,829.070,852.100,835.650,0.000,0.000,0
1512337326.350,791.236,835.650,845.520,783.011,0.000,0.000,0
1512337326.354,812.620,835.650,845.520,835.650,0.000,0.000,0
1512337326.359,845.520,832.360,847.165,931.059,0.000,0.000,0
1512337326.363,827.425,832.360,847.165,931.059,0.000,0.000,0
1512337326.368,792.881,832.360,847.165,878.419,0.000,0.000,0
1512337326.372,797.815,835.650,850.455,931.059,0.000,0.000,0
1512337326.377,817.555,835.650,850.455,1036.338,0.000,0.000,0
1512337326.381,845.520,835.650,852.100,1036.338,0.000,0.000,0
1512337326.386,814.265,829.070,853.745,931.059,0.000,0.000,0
1512337326.391,787.946,832.360,845.520,878.419,0.000,0.000,0
1512337326.395,810.975,838.940,845.520,931.059,0.000,0.000,0
1512337326.400,837.295,838.940,848.810,983.698,0.000,0.000,0
1512337326.404,817.555,834.005,848.810,931.059,0.000,0.000,0
1512337326.409,786.301,829.070,845.520,825.780,0.000,0.000,0
1512337326.413,794.526,832.360,847.165,825.780,0.000,0.000,0
1512337326.418,822.490,827.425,843.875,878.419,0.000,0.000,0
1512337326.422,829.070,830.715,845.520,878.419,0.000,0.000,0
1512337326.427,794.526,830.715,850.455,773.141,0.000,0.000,0
1512337326.431,781.366,830.715,847.165,773.141,0.000,0.000,0
1512337326.436,814.265,840.585,843.875,878.419,0.000,0.000,0
1512337326.440,848.810,830.715,843.875,931.059,0.000,0.000,0
1512337326.445,814.265,830.715,843.875,825.780,0.000,0.000,0
1512337326.449,796.170,827.425,848.810,773.141,0.000,0.000,0
1512337326.454,797.815,829.070,847.165,773.141,0.000,0.000,0
1512337326.458,838.940,832.360,848.810,878.419,0.000,0.000,0
1512337326.463,824.135,834.005,847.165,878.419,0.000,0.000,0
1512337326.468,797.815,827.425,848.810,773.141,0.000,0.000,0
1512337326.472,786.301,825.780,847.165,773.141,0.000,0.000,0
1512337326.477,820.845,830.715,848.810,878.419,0.000,0.000,0
1512337326.481,840.585,832.360,848.810,878.419,0.000,0.000,0
1512337326.486,804.395,840.585,852.100,773.141,0.000,0.000,0
1512337326.490,791.236,834.005,853.745,773.141,0.000,0.000,0
1512337326.495,792.881,834.005,848.810,825.780,0.000,0.000,0
1512337326.499,840.585,827.425,852.100,931.059,0.000,0.000,0
1512337326.504,824.135,829.070,852.100,878.419,0.000,0.000,0
1512337326.508,799.460,834.005,852.100,825.780,0.000,0.000,0
1512337326.513,807.685,829.070,853.745,825.780,0.000,0.000,0
1512337326.517,819.200,834.005,847.165,878.419,0.000,0.000,0
1512337326.522,837.295,830.715,850.455,878.419,0.000,0.000,0
1512337326.526,799.460,830.715,850.455,773.141,0.000,0.000,0
1512337326.531,794.526,835.650,850.455,773.141,0.000,0.000,0
1512337326.535,815.910,827.425,852.100,825.780,0.000,0.000,0
1512337326.540,834.005,832.360,848.810,878.419,0.000,0.000,0
1512337326.545,814.265,830.715,852.100,825.780,0.000,0.000,0
1512337326.549,786.301,832.360,847.165,773.141,0.000,0.000,0
1512337326.554,802.750,838.940,847.165,825.780,0.000,0.000,0
1512337326.558,837.295,829.070,850.455,931.059,0.000,0.000,0
1512337326.563,832.360,837.295,847.165,931.059,0.000,0.000,0
1512337326.567,783.011,835.650,848.810,825.780,0.000,0.000,0
1512337326.572,784.656,837.295,852.100,825.780,0.000,0.000,0
1512337326.576,820.845,830.715,850.455,878.419,0.000,0.000,0
1512337326.581,832.360,832.360,843.875,825.780,0.000,0.000,0
1512337326.585,810.975,835.650,843.875,720.501,0.000,0.000,0
1512337326.590,789.591,832.360,848.810,667.862,0.000,0.000,0
1512337326.594,802.750,832.360,845.520,720.501,0.000,0.000,0
1512337326.599,845.520,829.070,850.455,825.780,0.000,0.000,0
1512337326.603,824.135,832.360,843.875,773.141,0.000,0.000,0
1512337326.608,796.170,838.940,845.520,720.501,0.000,0.000,0
1512337326.612,801.105,832.360,850.455,720.501,0.000,0.000,0
1512337326.617,830.715,835.650,845.520,773.141,0.000,0.000,0
1512337326.622,843.875,822.490,852.100,825.780,0.000,0.000,0
1512337326.626,786.301,827.425,842.230,720.501,0.000,0.000,0
1512337326.631,781.366,840.585,842.230,720.501,0.000,0.000,0
1512337326.635,804.395,835.650,843.875,773.141,0.000,0.000,0
1512337326.640,830.715,834.005,845.520,825.780,0.000,0.000,0
1512337326.644,804.395,830.715,850.455,773.141,0.000,0.000,0
1512337326.649,786.301,834.005,847.165,720.501,0.000,0.000,0
1512337326.653,794.526,837.295,850.455,825.780,0.000,0.000,0
1512337326.658,832.360,840.585,843.875,878.419,0.000,0.000,0
1512337326.662,840.585,835.650,852.100,878.419,0.000,0.000,0
1512337326.667,802.750,825.780,857.035,773.141,0.000,0.000,0
1512337326.671,791.236,827.425,850.455,720.501,0.000,0.000,0
1512337326.676,815.910,832.360,843.875,773.141,0.000,0.000,0
1512337326.680,843.875,834.005,843.875,825.780,0.000,0.000,0
1512337326.685,812.620,829.070,845.520,773.141,0.000,0.000,0
1512337326.689,783.011,835.650,842.230,720.501,0.000,0.000,0
1512337326.694,797.815,840.585,842.230,773.141,0.000,0.000,0
1512337326.699,822.490,837.295,842.230,878.419,0.000,0.000,0
1512337326.703,815.910,843.875,842.230,878.419,0.000,0.000,0
1512337326.708,791.236,838.940,847.165,825.780,0.000,0.000,0
1512337326.712,781.366,843.875,847.165,825.780,0.000,0.000,0
1512337326.717,819.200,835.650,852.100,931.059,0.000,0.000,0
1512337326.721,837.295,837.295,848.810,931.059,0.000,0.000,0
1512337326.726,802.750,838.940,852.100,878.419,0.000,0.000,0
1512337326.730,799.460,829.070,850.455,825.780,0.000,0.000,0
1512337326.735,801.105,840.585,840.585,878.419,0.000,0.000,0
1512337326.739,842.230,832.360,847.165,983.698,0.000,0.000,0
1512337326.744,817.555,834.005,842.230,931.059,0.000,0.000,0
1512337326.748,799.460,832.360,850.455,878.419,0.000,0.000,1
1512337326.753,806.040,822.490,850.455,878.419,0.000,0.000,0
1512337326.757,830.715,832.360,848.810,931.059,0.000,0.000,0
1512337326.762,832.360,834.005,850.455,931.059,0.000,0.000,0
1512337326.766,796.170,837.295,848.810,825.780,0.000,0.000,0
1512337326.771,794.526,843.875,850.455,825.780,0.000,0.000,0
1512337326.775,824.135,835.650,852.100,878.419,0.000,0.000,0
1512337326.780,845.520,838.940,847.165,931.059,0.000,0.000,0
1512337326.785,812.620,845.520,845.520,878.419,0.000,0.000,0
1512337326.789,792.881,843.875,847.165,825.780,0.000,0.000,0
1512337326.794,804.395,832.360,848.810,825.780,0.000,0.000,0
1512337326.798,834.005,838.940,847.165,931.059,0.000,0.000,0
1512337326.803,837.295,843.875,852.100,931.059,0.000,0.000,0
1512337326.807,801.105,840.585,848.810,825.780,0.000,0.000,0
1512337326.812,794.526,840.585,850.455,825.780,0.000,0.000,0
1512337326.816,817.555,825.780,855.390,878.419,0.000,0.000,0
1512337326.821,830.715,827.425,848.810,878.419,0.000,0.000,0
1512337326.825,801.105,838.940,850.455,773.141,0.000,0.000,0
1512337326.830,783.011,829.070,853.745,720.501,0.000,0.000,0
1512337326.834,809.330,830.715,850.455,773.141,0.000,0.000,0
1512337326.839,842.230,829.070,853.745,825.780,0.000,0.000,0
1512337326.843,819.200,835.650,850.455,825.780,0.000,0.000,0
1512337326.848,797.815,843.875,850.455,773.141,0.000,0.000,0
1512337326.852,796.170,840.585,848.810,773.141,0.000,0.000,0
1512337326.857,835.650,835.650,850.455,878.419,0.000,0.000,0
1512337326.862,845.520,832.360,850.455,878.419,0.000,0.000,0
1512337326.866,802.750,843.875,848.810,773.141,0.000,0.000,0
1512337326.871,799.460,837.295,857.035,825.780,0.000,0.000,0
1512337326.875,815.910,837.295,850.455,931.059,0.000,0.000,0
1512337326.880,850.455,838.940,852.100,983.698,0.000,0.000,0
1512337326.884,814.265,842.230,852.100,931.059,0.000,0.000,0
1512337326.889,787.946,840.585,852.100,878.419,0.000,0.000,0
1512337326.893,802.750,838.940,852.100,878.419,0.000,0.000,0
1512337326.898,843.875,830.715,852.100,983.698,0.000,0.000,0
1512337326.902,830.715,830.715,847.165,983.698,0.000,0.000,0
1512337326.907,792.881,845.520,843.875,878.419,0.000,0.000,0
1512337326.911,786.301,843.875,847.165,878.419,0.000,0.000,0
1512337326.916,820.845,837.295,850.455,931.059,0.000,0.000,0
1512337326.920,850.455,830.715,852.100,983.698,0.000,0.000,0
1512337326.925,814.265,837.295,850.455,878.419,0.000,0.000,0
1512337326.929,797.815,832.360,850.455,825.780,0.000,0.000,0
1512337326.934,799.460,837.295,843.875,825.780,0.000,0.000,0
1512337326.939,840.585,835.650,847.165,931.059,0.000,0.000,0
1512337326.943,825.780,827.425,847.165,881.709,0.000,0.000,0
1512337326.948,787.946,837.295,845.520,829.070,0.000,0.000,0
1512337326.952,796.170,842.230,847.165,829.070,0.000,0.000,0
1512337326.957,827.425,835.650,848.810,934.349,0.000,0.000,0
1512337326.961,834.005,837.295,848.810,986.988,0.000,0.000,0
1512337326.966,809.330,830.715,852.100,881.709,0.000,0.000,0
1512337326.970,799.460,829.070,852.100,829.070,0.000,0.000,0
1512337326.975,819.200,840.585,848.810,881.709,0.000,0.000,0
1512337326.979,850.455,832.360,850.455,934.349,0.000,0.000,0
1512337326.984,817.555,838.940,847.165,881.709,0.000,0.000,0
1512337326.988,797.815,840.585,847.165,829.070,0.000,0.000,0
1512337326.993,810.975,835.650,847.165,829.070,0.000,0.000,0
1512337326.997,837.295,838.940,845.520,881.709,0.000,0.000,0
1512337327.002,840.585,842.230,847.165,881.709,0.000,0.000,0
1512337327.006,801.105,838.940,847.165,776.431,0.000,0.000,0
1512337327.011,796.170,840.585,847.165,776.431,0.000,0.000,0
1512337327.016,825.780,832.360,847.165,829.070,0.000,0.000,0
1512337327.020,837.295,835.650,845.520,934.349,0.000,0.000,0
1512337327.025,812.620,834.005,850.455,881.709,0.000,0.000,0
1512337327.029,799.460,838.940,845.520,776.431,0.000,0.000,0
1512337327.034,812.620,843.875,847.165,829.070,0.000,0.000,0
1512337327.038,847.165,835.650,848.810,934.349,0.000,0.000,0
1512337327.043,837.295,840.585,850.455,934.349,0.000,0.000,0
1512337327.047,802.750,835.650,850.455,829.070,0.000,0.000,0
1512337327.052,806.040,827.425,852.100,829.070,0.000,0.000,0
1512337327.056,822.490,824.135,852.100,881.709,0.000,0.000,0
1512337327.061,845.520,838.940,848.810,934.349,0.000,0.000,0
1512337327.065,815.910,840.585,848.810,829.070,0.000,0.000,0
1512337327.070,796.170,838.940,847.165,776.431,0.000,0.000,0
1512337327.074,817.555,837.295,848.810,829.070,0.000,0.000,0
1512337327.079,838.940,830.715,848.810,881.709,0.000,0.000,0
1512337327.083,810.975,835.650,847.165,881.709,0.000,0.000,0
1512337327.088,792.881,837.295,847.165,776.431,0.000,0.000,0
1512337327.093,797.815,834.005,848.810,829.070,0.000,0.000,0
1512337327.097,824.135,832.360,848.810,934.349,0.000,0.000,0
1512337327.102,843.875,838.940,852.100,934.349,0.000,0.000,0
1512337327.106,799.460,838.940,852.100,829.070,0.000,0.000,0
1512337327.111,792.881,835.650,850.455,829.070,0.000,0.000,0
1512337327.115,820.845,829.070,850.455,881.709,0.000,0.000,0
1512337327.120,838.940,834.005,848.810,934.349,0.000,0.000,0
1512337327.124,822.490,845.520,850.455,881.709,0.000,0.000,0
1512337327.129,792.881,837.295,853.745,829.070,0.000,0.000,0
1512337327.133,802.750,834.005,857.035,829.070,0.000,0.000,0
1512337327.138,825.780,827.425,850.455,881.709,0.000,0.000,0
1512337327.142,827.425,830.715,847.165,881.709,0.000,0.000,0
1512337327.147,792.881,834.005,847.165,776.431,0.000,0.000,0
1512337327.151,784.656,838.940,847.165,776.431,0.000,0.000,0
1512337327.156,819.200,829.070,848.810,881.709,0.000,0.000,0
1512337327.160,840.585,832.360,848.810,934.349,0.000,0.000,0
1512337327.165,815.910,835.650,847.165,829.070,0.000,0.000,0
1512337327.169,791.236,834.005,847.165,723.791,0.000,0.000,0
1512337327.174,804.395,830.715,847.165,723.791,0.000,0.000,0
1512337327.179,830.715,824.135,848.810,829.070,0.000,0.000,0
1512337327.183,819.200,830.715,845.520,829.070,0.000,0.000,0
1512337327.188,792.881,832.360,845.520,723.791,0.000,0.000,0
1512337327.192,791.236,832.360,843.875,723.791,0.000,0.000,0
1512337327.197,819.200,830.715,847.165,829.070,0.000,0.000,0
1512337327.201,830.715,824.135,848.810,829.070,0.000,0.000,0
1512337327.206,787.946,837.295,845.520,723.791,0.000,0.000,0
1512337327.210,796.170,835.650,850.455,723.791,0.000,0.000,0
1512337327.215,804.395,835.650,845.520,776.431,0.000,0.000,0
1512337327.219,847.165,835.650,850.455,881.709,0.000,0.000,0
1512337327.224,824.135,837.295,847.165,829.070,0.000,0.000,0
1512337327.228,786.301,840.585,847.165,776.431,0.000,0.000,0
1512337327.233,796.170,827.425,853.745,776.431,0.000,0.000,0
1512337327.237,829.070,832.360,850.455,881.709,0.000,0.000,0
1512337327.242,842.230,830.715,852.100,934.349,0.000,0.000,0
1512337327.246,794.526,834.005,843.875,881.709,0.000,0.000,0
1512337327.251,796.170,838.940,847.165,881.709,0.000,0.000,0
1512337327.256,815.910,832.360,848.810,934.349,0.000,0.000,0
1512337327.260,837.295,835.650,850.455,986.988,0.000,0.000,0
1512337327.265,825.780,834.005,852.100,934.349,0.000,0.000,0
1512337327.269,779.721,829.070,848.810,829.070,0.000,0.000,0
1512337327.274,792.881,832.360,850.455,829.070,0.000,0.000,0
1512337327.278,840.585,837.295,848.810,934.349,0.000,0.000,0
1512337327.283,829.070,840.585,843.875,934.349,0.000,0.000,0
1512337327.287,810.975,837.295,845.520,829.070,0.000,0.000,0
1512337327.292,791.236,830.715,847.165,829.070,0.000,0.000,0
1512337327.296,815.910,832.360,845.520,881.709,0.000,0.000,0
1512337327.301,845.520,842.230,847.165,934.349,0.000,0.000,0
1512337327.305,814.265,834.005,848.810,829.070,0.000,0.000,0
1512337327.310,797.815,835.650,850.455,829.070,0.000,0.000,0
1512337327.314,804.395,835.650,848.810,881.709,0.000,0.000,0
1512337327.319,832.360,835.650,848.810,934.349,0.000,0.000,0
1512337327.323,824.135,834.005,850.455,934.349,0.000,0.000,0
1512337327.328,794.526,837.295,850.455,881.709,0.000,0.000,0
1512337327.333,801.105,827.425,853.745,881.709,0.000,0.000,0
1512337327.337,807.685,830.715,847.165,934.349,0.000,0.000,0
1512337327.342,832.360,843.875,845.520,934.349,0.000,0.000,0
1512337327.346,801.105,837.295,845.520,829.070,0.000,0.000,0
1512337327.351,792.881,830.715,845.520,829.070,0.000,0.000,0
1512337327.355,817.555,824.135,850.455,881.709,0.000,0.000,0
1512337327.360,842.230,824.135,852.100,934.349,0.000,0.000,0
1512337327.364,820.845,822.490,852.100,829.070,0.000,0.000,0
1512337327.369,791.236,829.070,850.455,723.791,0.000,0.000,0
1512337327.373,796.170,830.715,847.165,723.791,0.000,0.000,0
1512337327.378,820.845,838.940,843.875,829.070,0.000,0.000,0
1512337327.382,835.650,835.650,850.455,934.349,0.000,0.000,0
1512337327.387,794.526,840.585,847.165,829.070,0.000,0.000,0
1512337327.391,799.460,837.295,848.810,829.070,0.000,0.000,0
1512337327.396,807.685,829.070,845.520,881.709,0.000,0.000,0
1512337327.400,830.715,840.585,843.875,934.349,0.000,0.000,0
1512337327.405,817.555,832.360,847.165,881.709,0.000,0.000,0
1512337327.410,787.946,835.650,848.810,829.070,0.000,0.000,0
1512337327.414,806.040,829.070,850.455,881.709,0.000,0.000,0
1512337327.419,838.940,829.070,847.165,934.349,0.000,0.000,0
1512337327.423,824.135,834.005,845.520,934.349,0.000,0.000,0
1512337327.428,791.236,832.360,847.165,829.070,0.000,0.000,2
1512337327.432,787.946,837.295,845.520,829.070,0.000,0.000,0
1512337327.437,824.135,832.360,847.165,934.349,0.000,0.000,0
1512337327.441,842.230,832.360,842.230,934.349,0.000,0.000,0
1512337327.446,806.040,834.005,840.585,829.070,0.000,0.000,0
1512337327.450,792.881,837.295,843.875,776.431,0.000,0.000,0
1512337327.455,807.685,825.780,845.520,829.070,0.000,0.000,0
1512337327.459,824.135,825.780,843.875,881.709,0.000,0.000,0
1512337327.464,825.780,834.005,843.875,829.070,0.000,0.000,0
1512337327.468,794.526,834.005,843.875,776.431,0.000,0.000,0
1512337327.473,792.881,832.360,847.165,776.431,0.000,0.000,0
1512337327.477,834.005,829.070,850.455,881.709,0.000,0.000,0
1512337327.482,834.005,820.845,850.455,881.709,0.000,0.000,0
1512337327.487,792.881,832.360,848.810,776.431,0.000,0.000,0
1512337327.491,791.236,834.005,848.810,776.431,0.000,0.000,0
1512337327.496,809.330,830.715,845.520,829.070,0.000,0.000,0
1512337327.500,838.940,834.005,845.520,881.709,0.000,0.000,0
1512337327.505,812.620,825.780,847.165,829.070,0.000,0.000,0
1512337327.509,781.366,824.135,845.520,776.431,0.000,0.000,0
1512337327.514,786.301,829.070,845.520,776.431,0.000,0.000,0
1512337327.518,824.135,834.005,847.165,881.709,0.000,0.000,0
1512337327.523,829.070,837.295,842.230,881.709,0.000,0.000,0
1512337327.527,789.591,838.940,845.520,776.431,0.000,0.000,0
1512337327.532,794.526,822.490,848.810,776.431,0.000,0.000,0
1512337327.536,807.685,829.070,843.875,829.070,0.000,0.000,0
1512337327.541,838.940,830.715,845.520,881.709,0.000,0.000,0
1512337327.545,809.330,832.360,847.165,829.070,0.000,0.000,0
1512337327.550,789.591,822.490,852.100,776.431,0.000,0.000,0
1512337327.554,797.815,832.360,843.875,776.431,0.000,0.000,0
1512337327.559,840.585,837.295,843.875,881.709,0.000,0.000,0
1512337327.563,834.005,835.650,845.520,881.709,0.000,0.000,0
1512337327.568,794.526,835.650,848.810,776.431,0.000,0.000,0
1512337327.573,797.815,829.070,853.745,776.431,0.000,0.000,0
1512337327.577,814.265,829.070,850.455,829.070,0.000,0.000,0
1512337327.582,834.005,840.585,847.165,829.070,0.000,0.000,0
1512337327.586,810.975,842.230,850.455,776.431,0.000,0.000,0
1512337327.591,791.236,834.005,852.100,776.431,0.000,0.000,0
1512337327.595,807.685,838.940,848.810,829.070,0.000,0.000,0
1512337327.600,829.070,837.295,850.455,934.349,0.000,0.000,0
1512337327.604,817.555,832.360,852.100,829.070,0.000,0.000,0
1512337327.609,791.236,834.005,852.100,776.431,0.000,0.000,0
1512337327.613,797.815,834.005,847.165,776.431,0.000,0.000,0
1512337327.618,830.715,834.005,847.165,881.709,0.000,0.000,0
1512337327.622,837.295,834.005,845.520,881.709,0.000,0.000,0
1512337327.627,806.040,834.005,847.165,776.431,0.000,0.000,0
1512337327.631,802.750,827.425,850.455,776.431,0.000,0.000,0
1512337327.636,809.330,834.005,843.875,829.070,0.000,0.000,0
1512337327.640,838.940,837.295,845.520,881.709,0.000,0.000,0
1512337327.645,804.395,835.650,843.875,776.431,0.000,0.000,0
1512337327.650,796.170,838.940,845.520,723.791,0.000,0.000,0
1512337327.654,817.555,834.005,848.810,776.431,0.000,0.000,0
1512337327.659,847.165,834.005,848.810,881.709,0.000,0.000,0
1512337327.663,825.780,837.295,845.520,881.709,0.000,0.000,0
1512337327.668,789.591,837.295,845.520,776.431,0.000,0.000,0
1512337327.672,789.591,830.715,845.520,776.431,0.000,0.000,0
1512337327.677,822.490,832.360,843.875,829.070,0.000,0.000,0
1512337327.681,847.165,840.585,845.520,881.709,0.000,0.000,0
1512337327.686,815.910,834.005,848.810,829.070,0.000,0.000,0
1512337327.690,792.881,838.940,845.520,776.431,0.000,0.000,0
1512337327.695,814.265,835.650,848.810,829.070,0.000,0.000,0
1512337327.699,837.295,830.715,845.520,881.709,0.000,0.000,0
1512337327.704,817.555,842.230,843.875,881.709,0.000,0.000,0
1512337327.708,792.881,834.005,845.520,829.070,0.000,0.000,0
1512337327.713,787.946,837.295,845.520,829.070,0.000,0.000,0
1512337327.717,834.005,837.295,847.165,934.349,0.000,0.000,0
1512337327.722,843.875,834.005,847.165,934.349,0.000,0.000,0
1512337327.727,799.460,834.005,845.520,829.070,0.000,0.000,0
1512337327.731,797.815,840.585,845.520,829.070,0.000,0.000,0
1512337327.736,817.555,837.295,848.810,881.709,0.000,0.000,0
1512337327.740,845.520,845.520,843.875,934.349,0.000,0.000,0
1512337327.745,835.650,842.230,848.810,881.709,0.000,0.000,0
1512337327.749,804.395,829.070,847.165,829.070,0.000,0.000,0
1512337327.754,797.815,834.005,840.585,829.070,0.000,0.000,0
1512337327.758,840.585,825.780,847.165,934.349,0.000,0.000,0
1512337327.763,830.715,835.650,843.875,934.349,0.000,0.000,0
1512337327.767,797.815,837.295,847.165,881.709,0.000,0.000,0
1512337327.772,799.460,829.070,847.165,881.709,0.000,0.000,0
1512337327.776,825.780,834.005,848.810,934.349,0.000,0.000,0
1512337327.781,853.745,825.780,850.455,986.988,0.000,0.000,0
1512337327.785,812.620,832.360,847.165,881.709,0.000,0.000,0
1512337327.790,794.526,835.650,850.455,829.070,0.000,0.000,0
1512337327.794,802.750,832.360,847.165,829.070,0.000,0.000,0
1512337327.799,834.005,827.425,848.810,934.349,0.000,0.000,0
1512337327.804,817.555,838.940,843.875,881.709,0.000,0.000,0
1512337327.808,792.881,835.650,848.810,776.431,0.000,0.000,0
1512337327.813,784.656,838.940,848.810,776.431,0.000,0.000,0
1512337327.817,829.070,845.520,852.100,881.709,0.000,0.000,0
1512337327.822,835.650,830.715,852.100,829.070,0.000,0.000,0
1512337327.826,801.105,837.295,845.520,723.791,0.000,0.000,0
1512337327.831,792.881,835.650,847.165,723.791,0.000,0.000,0
1512337327.835,814.265,834.005,847.165,776.431,0.000,0.000,0
1512337327.840,834.005,838.940,847.165,829.070,0.000,0.000,0
1512337327.844,830.715,840.585,852.100,829.070,0.000,0.000,0
1512337327.849,802.750,829.070,857.035,723.791,0.000,0.000,0
1512337327.853,794.526,834.005,852.100,723.791,0.000,0.000,0
1512337327.858,838.940,835.650,852.100,829.070,0.000,0.000,0
1512337327.862,825.780,840.585,848.810,829.070,0.000,0.000,0
1512337327.867,804.395,840.585,852.100,776.431,0.000,0.000,0
1512337327.871,794.526,827.425,852.100,776.431,0.000,0.000,0
1512337327.876,812.620,834.005,850.455,829.070,0.000,0.000,0
1512337327.881,837.295,838.940,847.165,881.709,0.000,0.000,0
1512337327.885,810.975,842.230,847.165,829.070,0.000,0.000,0
1512337327.890,791.236,837.295,847.165,776.431,0.000,0.000,0
1512337327.894,802.750,832.360,848.810,829.070,0.000,0.000,0
1512337327.899,840.585,838.940,848.810,934.349,0.000,0.000,0
1512337327.903,832.360,842.230,848.810,934.349,0.000,0.000,0
1512337327.908,810.975,838.940,853.745,829.070,0.000,0.000,0
1512337327.912,801.105,834.005,852.100,829.070,0.000,0.000,0
1512337327.917,822.490,835.650,850.455,881.709,0.000,0.000,0
1512337327.921,853.745,840.585,848.810,934.349,0.000,0.000,0
1512337327.926,815.910,835.650,847.165,829.070,0.000,0.000,0
1512337327.930,789.591,837.295,845.520,776.431,0.000,0.000,0
1512337327.935,810.975,834.005,847.165,829.070,0.000,0.000,0
1512337327.939,842.230,837.295,842.230,881.709,0.000,0.000,0
1512337327.944,830.715,843.875,845.520,881.709,0.000,0.000,0
1512337327.948,797.815,829.070,852.100,829.070,0.000,0.000,0
1512337327.953,799.460,829.070,847.165,829.070,0.000,0.000,0
1512337327.957,842.230,834.005,852.100,881.709,0.000,0.000,0
1512337327.962,842.230,835.650,847.165,881.709,0.000,0.000,0
1512337327.967,817.555,842.230,847.165,776.431,0.000,0.000,0
1512337327.971,796.170,832.360,847.165,776.431,0.000,0.000,0
1512337327.976,814.265,827.425,848.810,829.070,0.000,0.000,0
1512337327.980,838.940,829.070,845.520,881.709,0.000,0.000,0
1512337327.985,817.555,832.360,847.165,829.070,0.000,0.000,0
1512337327.989,786.301,832.360,847.165,776.431,0.000,0.000,1
1512337327.994,804.395,829.070,847.165,829.070,0.000,0.000,0
1512337327.998,840.585,820.845,850.455,881.709,0.000,0.000,0
1512337328.003,824.135,832.360,842.230,881.709,0.000,0.000,0
1512337328.007,801.105,832.360,847.165,776.431,0.000,0.000,0
1512337328.012,791.236,834.005,838.940,776.431,0.000,0.000,0
1512337328.016,814.265,835.650,843.875,881.709,0.000,0.000,0
1512337328.021,845.520,829.070,848.810,934.349,0.000,0.000,0
1512337328.025,809.330,834.005,845.520,829.070,0.000,0.000,0
1512337328.030,792.881,838.940,848.810,776.431,0.000,0.000,0
1512337328.034,815.910,837.295,852.100,829.070,0.000,0.000,0
1512337328.039,832.360,842.230,850.455,934.349,0.000,0.000,0
1512337328.044,832.360,840.585,852.100,986.988,0.000,0.000,0
1512337328.048,796.170,830.715,853.745,881.709,0.000,0.000,0
1512337328.053,791.236,835.650,852.100,881.709,0.000,0.000,0
1512337328.057,829.070,832.360,852.100,986.988,0.000,0.000,0
1512337328.062,843.875,832.360,853.745,986.988,0.000,0.000,0
1512337328.066,807.685,832.360,850.455,881.709,0.000,0.000,0
1512337328.071,787.946,838.940,847.165,829.070,0.000,0.000,0
1512337328.075,814.265,840.585,852.100,881.709,0.000,0.000,0
1512337328.080,842.230,837.295,850.455,934.349,0.000,0.000,0
1512337328.084,824.135,832.360,852.100,881.709,0.000,0.000,0
1512337328.089,799.460,825.780,848.810,776.431,0.000,0.000,0
1512337328.093,791.236,830.715,847.165,776.431,0.000,0.000,0
1512337328.098,830.715,837.295,847.165,881.709,0.000,0.000,0
1512337328.102,840.585,837.295,848.810,881.709,0.000,0.000,0
1512337328.107,806.040,834.005,848.810,776.431,0.000,0.000,0
1512337328.111,791.236,834.005,845.520,736.951,0.000,0.000,0
1512337328.116,815.910,835.650,847.165,842.230,0.000,0.000,0
1512337328.121,845.520,829.070,848.810,947.509,0.000,0.000,0
1512337328.125,817.555,834.005,848.810,894.869,0.000,0.000,0
1512337328.130,801.105,829.070,848.810,842.230,0.000,0.000,0
1512337328.134,801.105,832.360,845.520,842.230,0.000,0.000,0
1512337328.139,837.295,837.295,847.165,947.509,0.000,0.000,0
1512337328.143,827.425,830.715,848.810,947.509,0.000,0.000,0
1512337328.148,797.815,837.295,843.875,842.230,0.000,0.000,0
1512337328.152,796.170,834.005,843.875,842.230,0.000,0.000,0
1512337328.157,817.555,835.650,838.940,894.869,0.000,0.000,0
1512337328.161,845.520,835.650,843.875,947.509,0.000,0.000,0
1512337328.166,815.910,829.070,845.520,842.230,0.000,0.000,0
1512337328.170,792.881,832.360,843.875,789.591,0.000,0.000,0
1512337328.175,807.685,824.135,847.165,842.230,0.000,0.000,0
1512337328.179,834.005,834.005,840.585,894.869,0.000,0.000,0
1512337328.184,822.490,834.005,845.520,894.869,0.000,0.000,0
1512337328.188,786.301,827.425,847.165,842.230,0.000,0.000,0
1512337328.193,796.170,830.715,842.230,842.230,0.000,0.000,0
1512337328.198,827.425,832.360,845.520,947.509,0.000,0.000,0
1512337328.202,842.230,832.360,843.875,947.509,0.000,0.000,0
1512337328.207,807.685,834.005,847.165,842.230,0.000,0.000,0
1512337328.211,814.265,829.070,848.810,842.230,0.000,0.000,0
1512337328.216,824.135,827.425,845.520,894.869,0.000,0.000,0
1512337328.220,842.230,834.005,843.875,947.509,0.000,0.000,0
1512337328.225,825.780,834.005,843.875,894.869,0.000,0.000,0
1512337328.229,792.881,834.005,843.875,789.591,0.000,0.000,0
1512337328.234,806.040,825.780,848.810,842.230,0.000,0.000,0
1512337328.238,834.005,835.650,842.230,894.869,0.000,0.000,0
1512337328.243,843.875,838.940,843.875,894.869,0.000,0.000,0
1512337328.247,796.170,837.295,843.875,789.591,0.000,0.000,0
1512337328.252,799.460,837.295,845.520,789.591,0.000,0.000,0
1512337328.256,820.845,825.780,847.165,842.230,0.000,0.000,0
1512337328.261,847.165,834.005,843.875,842.230,0.000,0.000,0
1512337328.265,815.910,838.940,843.875,736.951,0.000,0.000,0
1512337328.270,804.395,837.295,847.165,684.312,0.000,0.000,0
1512337328.275,812.620,835.650,848.810,736.951,0.000,0.000,0
1512337328.279,838.940,829.070,850.455,789.591,0.000,0.000,0
1512337328.284,832.360,837.295,847.165,789.591,0.000,0.000,0
1512337328.288,807.685,838.940,847.165,684.312,0.000,0.000,0
1512337328.293,797.815,835.650,845.520,684.312,0.000,0.000,0
1512337328.297,827.425,837.295,843.875,789.591,0.000,0.000,0
1512337328.302,852.100,834.005,845.520,842.230,0.000,0.000,0
1512337328.306,817.555,837.295,848.810,736.951,0.000,0.000,0
1512337328.311,802.750,835.650,848.810,684.312,0.000,0.000,0
1512337328.315,817.555,838.940,848.810,736.951,0.000,0.000,0
1512337328.320,850.455,830.715,848.810,842.230,0.000,0.000,0
1512337328.324,825.780,834.005,847.165,789.591,0.000,0.000,0
1512337328.329,802.750,838.940,847.165,736.951,0.000,0.000,0
1512337328.333,812.620,832.360,850.455,789.591,0.000,0.000,0
1512337328.338,842.230,832.360,843.875,894.869,0.000,0.000,0
1512337328.342,843.875,830.715,848.810,894.869,0.000,0.000,0
1512337328.347,804.395,832.360,847.165,789.591,0.000,0.000,0
1512337328.351,801.105,835.650,845.520,789.591,0.000,0.000,0
1512337328.356,827.425,838.940,848.810,842.230,0.000,0.000,0
1512337328.361,855.390,829.070,850.455,894.869,0.000,0.000,0
1512337328.365,815.910,830.715,845.520,789.591,0.000,0.000,0
1512337328.370,789.591,840.585,847.165,736.951,0.000,0.000,0
1512337328.374,801.105,837.295,847.165,789.591,0.000,0.000,0
1512337328.379,835.650,834.005,845.520,894.869,0.000,0.000,0
1512337328.383,834.005,825.780,852.100,894.869,0.000,0.000,0
1512337328.388,794.526,827.425,848.810,789.591,0.000,0.000,0
1512337328.392,796.170,830.715,845.520,789.591,0.000,0.000,0
1512337328.397,820.845,834.005,843.875,842.230,0.000,0.000,0
1512337328.401,842.230,834.005,843.875,894.869,0.000,0.000,0
1512337328.406,802.750,832.360,843.875,789.591,0.000,0.000,0
1512337328.410,787.946,837.295,840.585,736.951,0.000,0.000,0
1512337328.415,809.330,838.940,843.875,789.591,0.000,0.000,0
1512337328.419,835.650,835.650,847.165,894.869,0.000,0.000,0
1512337328.424,824.135,837.295,852.100,894.869,0.000,0.000,0
1512337328.428,799.460,827.425,857.035,789.591,0.000,0.000,0
1512337328.433,796.170,830.715,850.455,789.591,0.000,0.000,0
1512337328.438,827.425,835.650,850.455,894.869,0.000,0.000,0
1512337328.442,827.425,832.360,850.455,894.869,0.000,0.000,0
1512337328.447,794.526,838.940,848.810,789.591,0.000,0.000,0
1512337328.451,786.301,830.715,850.455,789.591,0.000,0.000,0
1512337328.456,802.750,838.940,850.455,842.230,0.000,0.000,0
1512337328.460,847.165,834.005,855.390,947.509,0.000,0.000,0
1512337328.465,812.620,829.070,855.390,894.869,0.000,0.000,0
1512337328.469,784.656,837.295,848.810,789.591,0.000,0.000,0
1512337328.474,794.526,827.425,855.390,789.591,0.000,0.000,0
1512337328.478,822.490,838.940,850.455,894.869,0.000,0.000,0
1512337328.483,832.360,834.005,855.390,947.509,0.000,0.000,0
1512337328.487,799.460,832.360,857.035,842.230,0.000,0.000,0
1512337328.492,786.301,838.940,845.520,842.230,0.000,0.000,0
1512337328.496,807.685,834.005,853.745,894.869,0.000,0.000,0
1512337328.501,835.650,832.360,852.100,947.509,0.000,0.000,0
1512337328.505,801.105,835.650,852.100,894.869,0.000,0.000,0
1512337328.510,787.946,832.360,855.390,842.230,0.000,0.000,0
1512337328.515,792.881,829.070,848.810,842.230,0.000,0.000,0
1512337328.519,840.585,837.295,848.810,947.509,0.000,0.000,0
1512337328.524,835.650,832.360,855.390,947.509,0.000,0.000,0
1512337328.528,791.236,837.295,850.455,842.230,0.000,0.000,0
1512337328.533,791.236,840.585,850.455,842.230,0.000,0.000,1
1512337328.537,815.910,827.425,850.455,894.869,0.000,0.000,0
1512337328.542,830.715,830.715,850.455,894.869,0.000,0.000,0
1512337328.546,801.105,838.940,852.100,789.591,0.000,0.000,0
1512337328.551,786.301,834.005,852.100,789.591,0.000,0.000,0
1512337328.555,799.460,840.585,847.165,842.230,0.000,0.000,0
1512337328.560,838.940,835.650,852.100,947.509,0.000,0.000,0
1512337328.564,824.135,830.715,852.100,894.869,0.000,0.000,0
1512337328.569,784.656,834.005,852.100,789.591,0.000,0.000,0
1512337328.573,806.040,832.360,852.100,789.591,0.000,0.000,0
1512337328.578,835.650,832.360,853.745,842.230,0.000,0.000,0
1512337328.582,829.070,824.135,852.100,842.230,0.000,0.000,0
1512337328.587,797.815,825.780,847.165,736.951,0.000,0.000,0
1512337328.592,779.721,829.070,848.810,736.951,0.000,0.000,0
1512337328.596,809.330,835.650,848.810,789.591,0.000,0.000,0
1512337328.601,842.230,837.295,850.455,842.230,0.000,0.000,0
1512337328.605,814.265,832.360,853.745,789.591,0.000,0.000,0
1512337328.610,783.011,837.295,850.455,736.951,0.000,0.000,0
1512337328.614,807.685,834.005,852.100,789.591,0.000,0.000,0
1512337328.619,835.650,829.070,850.455,894.869,0.000,0.000,0
1512337328.623,830.715,829.070,850.455,894.869,0.000,0.000,0
1512337328.628,789.591,834.005,847.165,789.591,0.000,0.000,0
1512337328.632,792.881,840.585,848.810,789.591,0.000,0.000,0
1512337328.637,815.910,838.940,848.810,842.230,0.000,0.000,0
1512337328.641,852.100,832.360,850.455,894.869,0.000,0.000,0
1512337328.646,819.200,827.425,855.390,789.591,0.000,0.000,0
1512337328.650,783.011,837.295,850.455,736.951,0.000,0.000,0
1512337328.655,806.040,845.520,848.810,789.591,0.000,0.000,0
1512337328.659,835.650,837.295,850.455,894.869,0.000,0.000,0
1512337328.664,820.845,832.360,850.455,894.869,0.000,0.000,0
1512337328.669,799.460,830.715,853.745,789.591,0.000,0.000,0
1512337328.673,799.460,832.360,850.455,789.591,0.000,0.000,0
1512337328.678,825.780,837.295,848.810,842.230,0.000,0.000,0
1512337328.682,848.810,837.295,850.455,842.230,0.000,0.000,0
1512337328.687,814.265,834.005,848.810,736.951,0.000,0.000,0
1512337328.691,794.526,830.715,847.165,736.951,0.000,0.000,0
1512337328.696,814.265,835.650,843.875,827.425,0.000,0.000,0
1512337328.700,837.295,827.425,848.810,932.704,0.000,0.000,0
1512337328.705,819.200,832.360,847.165,880.064,0.000,0.000,0
1512337328.709,802.750,837.295,845.520,827.425,0.000,0.000,0
1512337328.714,807.685,837.295,848.810,827.425,0.000,0.000,0
1512337328.718,832.360,835.650,848.810,880.064,0.000,0.000,0
1512337328.723,825.780,834.005,847.165,880.064,0.000,0.000,0
1512337328.727,796.170,822.490,852.100,774.786,0.000,0.000,0
1512337328.732,787.946,835.650,843.875,774.786,0.000,0.000,0
1512337328.736,820.845,837.295,845.520,827.425,0.000,0.000,0
1512337328.741,843.875,829.070,847.165,880.064,0.000,0.000,0
1512337328.746,812.620,838.940,842.230,827.425,0.000,0.000,0
1512337328.750,797.815,827.425,847.165,774.786,0.000,0.000,0
1512337328.755,810.975,835.650,843.875,774.786,0.000,0.000,0
1512337328.759,847.165,838.940,847.165,880.064,0.000,0.000,0
1512337328.764,829.070,837.295,848.810,880.064,0.000,0.000,0
1512337328.768,796.170,835.650,845.520,774.786,0.000,0.000,0
1512337328.773,804.395,838.940,847.165,801.105,0.000,0.000,0
1512337328.777,830.715,827.425,850.455,906.384,0.000,0.000,0
1512337328.782,842.230,832.360,847.165,932.704,0.000,0.000,0
1512337328.786,804.395,834.005,847.165,827.425,0.000,0.000,0
1512337328.791,791.236,827.425,850.455,801.105,0.000,0.000,0
1512337328.795,814.265,829.070,850.455,827.425,0.000,0.000,0
1512337328.800,847.165,832.360,847.165,906.384,0.000,0.000,0
1512337328.804,824.135,832.360,852.100,880.064,0.000,0.000,0
1512337328.809,778.076,832.360,848.810,774.786,0.000,0.000,0
1512337328.813,807.685,837.295,848.810,801.105,0.000,0.000,0
1512337328.818,829.070,827.425,853.745,880.064,0.000,0.000,0
1512337328.822,835.650,832.360,850.455,880.064,0.000,0.000,0
1512337328.827,801.105,840.585,847.165,774.786,0.000,0.000,0
1512337328.832,794.526,832.360,850.455,774.786,0.000,0.000,0
1512337328.836,819.200,832.360,848.810,853.745,0.000,0.000,0
1512337328.841,850.455,834.005,848.810,932.704,0.000,0.000,0
1512337328.845,812.620,838.940,847.165,880.064,0.000,0.000,0
1512337328.850,791.236,835.650,848.810,827.425,0.000,0.000,0
1512337328.854,802.750,830.715,848.810,827.425,0.000,0.000,0
1512337328.859,829.070,819.200,850.455,880.064,0.000,0.000,0
1512337328.863,834.005,822.490,850.455,880.064,0.000,0.000,0
1512337328.868,789.591,830.715,847.165,774.786,0.000,0.000,0
1512337328.872,789.591,837.295,847.165,774.786,0.000,0.000,0
1512337328.877,824.135,832.360,850.455,880.064,0.000,0.000,0
1512337328.881,840.585,829.070,847.165,880.064,0.000,0.000,0
1512337328.886,802.750,843.875,843.875,774.786,0.000,0.000,0
1512337328.890,806.040,847.165,847.165,774.786,0.000,0.000,0
1512337328.895,812.620,838.940,847.165,827.425,0.000,0.000,0
1512337328.899,845.520,834.005,850.455,880.064,0.000,0.000,0
1512337328.904,835.650,829.070,850.455,880.064,0.000,0.000,0
1512337328.909,794.526,827.425,848.810,774.786,0.000,0.000,0
1512337328.913,799.460,824.135,847.165,774.786,0.000,0.000,0
1512337328.918,819.200,837.295,842.230,880.064,0.000,0.000,0
1512337328.922,837.295,829.070,845.520,932.704,0.000,0.000,0
1512337328.927,794.526,842.230,840.585,880.064,0.000,0.000,0
1512337328.931,797.815,843.875,850.455,880.064,0.000,0.000,0
1512337328.936,822.490,835.650,848.810,932.704,0.000,0.000,0
1512337328.940,848.810,835.650,848.810,1037.983,0.000,0.000,0
1512337328.945,820.845,832.360,847.165,985.343,0.000,0.000,0
1512337328.949,796.170,840.585,843.875,880.064,0.000,0.000,0
1512337328.954,810.975,838.940,853.745,880.064,0.000,0.000,0
1512337328.958,838.940,838.940,845.520,932.704,0.000,0.000,0
1512337328.963,840.585,843.875,847.165,932.704,0.000,0.000,0
1512337328.967,802.750,832.360,848.810,827.425,0.000,0.000,0
1512337328.972,792.881,835.650,848.810,827.425,0.000,0.000,0
1512337328.976,817.555,840.585,847.165,880.064,0.000,0.000,0
1512337328.981,840.585,837.295,847.165,932.704,0.000,0.000,0
1512337328.986,815.910,834.005,847.165,827.425,0.000,0.000,0
1512337328.990,791.236,837.295,843.875,722.146,0.000,0.000,0
1512337328.995,809.330,840.585,848.810,774.786,0.000,0.000,0
1512337328.999,848.810,837.295,847.165,880.064,0.000,0.000,0
1512337329.004,819.200,840.585,848.810,880.064,0.000,0.000,0
1512337329.008,806.040,832.360,857.035,827.425,0.000,0.000,0
1512337329.013,802.750,830.715,853.745,827.425,0.000,0.000,0
1512337329.017,827.425,837.295,848.810,880.064,0.000,0.000,0
1512337329.022,852.100,840.585,850.455,932.704,0.000,0.000,0
1512337329.026,804.395,843.875,848.810,827.425,0.000,0.000,0
1512337329.031,794.526,840.585,848.810,827.425,0.000,0.000,0
1512337329.035,807.685,832.360,852.100,880.064,0.000,0.000,0
1512337329.040,838.940,834.005,848.810,932.704,0.000,0.000,0
1512337329.044,819.200,838.940,847.165,880.064,0.000,0.000,0
1512337329.049,799.460,838.940,847.165,827.425,0.000,0.000,0
1512337329.053,801.105,832.360,847.165,827.425,0.000,0.000,0
1512337329.058,829.070,830.715,848.810,880.064,0.000,0.000,0
1512337329.063,835.650,837.295,847.165,932.704,0.000,0.000,0
1512337329.067,801.105,834.005,852.100,827.425,0.000,0.000,0
1512337329.072,801.105,838.940,848.810,827.425,0.000,0.000,0
1512337329.076,827.425,832.360,848.810,880.064,0.000,0.000,0
1512337329.081,834.005,834.005,847.165,932.704,0.000,0.000,0
1512337329.085,806.040,837.295,847.165,880.064,0.000,0.000,0
1512337329.090,787.946,835.650,848.810,827.425,0.000,0.000,0
1512337329.094,797.815,829.070,848.810,827.425,0.000,0.000,0
1512337329.099,827.425,834.005,843.875,880.064,0.000,0.000,0
1512337329.103,832.360,843.875,843.875,880.064,0.000,0.000,0
1512337329.108,801.105,842.230,845.520,774.786,0.000,0.000,0
1512337329.112,797.815,835.650,850.455,774.786,0.000,0.000,0
1512337329.117,829.070,829.070,850.455,827.425,0.000,0.000,0
1512337329.121,842.230,832.360,850.455,880.064,0.000,0.000,0
1512337329.126,807.685,842.230,850.455,774.786,0.000,0.000,0
1512337329.130,797.815,843.875,848.810,774.786,0.000,0.000,0
1512337329.135,815.910,832.360,850.455,774.786,0.000,0.000,0
1512337329.140,835.650,832.360,848.810,827.425,0.000,0.000,0
1512337329.144,827.425,837.295,847.165,827.425,0.000,0.000,0
1512337329.149,802.750,837.295,850.455,774.786,0.000,0.000,0
1512337329.153,804.395,838.940,847.165,774.786,0.000,0.000,0
1512337329.158,842.230,832.360,847.165,880.064,0.000,0.000,0
1512337329.162,847.165,829.070,847.165,880.064,0.000,0.000,0
1512337329.167,802.750,840.585,842.230,774.786,0.000,0.000,0
1512337329.171,801.105,835.650,845.520,774.786,0.000,0.000,0
1512337329.176,815.910,827.425,845.520,827.425,0.000,0.000,0
1512337329.180,843.875,822.490,845.520,932.704,0.000,0.000,0
1512337329.185,809.330,837.295,843.875,880.064,0.000,0.000,0
1512337329.189,797.815,838.940,847.165,827.425,0.000,0.000,0
1512337329.194,792.881,842.230,842.230,827.425,0.000,0.000,0
1512337329.198,842.230,837.295,850.455,932.704,0.000,0.000,0
1512337329.203,845.520,827.425,852.100,932.704,0.000,0.000,0
1512337329.207,794.526,835.650,848.810,827.425,0.000,0.000,0
1512337329.212,806.040,837.295,850.455,827.425,0.000,0.000,0
1512337329.216,820.845,830.715,848.810,880.064,0.000,0.000,0
1512337329.221,838.940,832.360,850.455,932.704,0.000,0.000,0
1512337329.226,815.910,824.135,852.100,827.425,0.000,0.000,0
1512337329.230,794.526,822.490,848.810,722.146,0.000,0.000,0
1512337329.235,804.395,825.780,847.165,722.146,0.000,0.000,0
1512337329.239,837.295,825.780,845.520,774.786,0.000,0.000,0
1512337329.244,829.070,834.005,848.810,774.786,0.000,0.000,0
1512337329.248,791.236,834.005,852.100,722.146,0.000,0.000,0
1512337329.253,797.815,838.940,848.810,722.146,0.000,0.000,0
1512337329.257,817.555,840.585,848.810,827.425,0.000,0.000,0
1512337329.262,842.230,837.295,848.810,880.064,0.000,0.000,0
1512337329.266,797.815,838.940,847.165,774.786,0.000,0.000,1
1512337329.271,799.460,842.230,848.810,774.786,0.000,0.000,0
1512337329.275,824.135,834.005,850.455,827.425,0.000,0.000,0
1512337329.280,843.875,838.940,845.520,935.994,0.000,0.000,0
1512337329.284,837.295,837.295,850.455,935.994,0.000,0.000,0
1512337329.289,792.881,829.070,847.165,830.715,0.000,0.000,0
1512337329.293,796.170,838.940,845.520,830.715,0.000,0.000,0
1512337329.298,840.585,835.650,850.455,935.994,0.000,0.000,0
1512337329.303,847.165,835.650,850.455,935.994,0.000,0.000,0
1512337329.307,810.975,832.360,850.455,830.715,0.000,0.000,0
1512337329.312,789.591,824.135,848.810,830.715,0.000,0.000,0
1512337329.316,810.975,832.360,845.520,883.354,0.000,0.000,0
1512337329.321,842.230,829.070,848.810,935.994,0.000,0.000,0
1512337329.325,812.620,837.295,847.165,883.354,0.000,0.000,0
1512337329.330,799.460,834.005,848.810,830.715,0.000,0.000,0
1512337329.334,802.750,829.070,848.810,830.715,0.000,0.000,0
1512337329.339,837.295,830.715,847.165,883.354,0.000,0.000,0
1512337329.343,830.715,835.650,847.165,883.354,0.000,0.000,0
1512337329.348,799.460,830.715,847.165,778.076,0.000,0.000,0
1512337329.352,792.881,827.425,845.520,778.076,0.000,0.000,0
1512337329.357,812.620,830.715,845.520,883.354,0.000,0.000,0
1512337329.361,837.295,829.070,842.230,988.633,0.000,0.000,0
1512337329.366,807.685,830.715,847.165,935.994,0.000,0.000,0
1512337329.370,789.591,835.650,845.520,883.354,0.000,0.000,0
1512337329.375,815.910,822.490,845.520,883.354,0.000,0.000,0
1512337329.380,829.070,829.070,842.230,935.994,0.000,0.000,0
1512337329.384,820.845,834.005,840.585,935.994,0.000,0.000,0
1512337329.389,786.301,830.715,840.585,830.715,0.000,0.000,0
1512337329.393,799.460,838.940,845.520,830.715,0.000,0.000,0
1512337329.398,827.425,829.070,843.875,883.354,0.000,0.000,0
1512337329.402,838.940,832.360,845.520,883.354,0.000,0.000,0
1512337329.407,809.330,832.360,845.520,778.076,0.000,0.000,0
1512337329.411,789.591,835.650,840.585,778.076,0.000,0.000,0
1512337329.416,825.780,832.360,843.875,830.715,0.000,0.000,0
1512337329.420,837.295,834.005,842.230,883.354,0.000,0.000,0
1512337329.425,820.845,837.295,842.230,830.715,0.000,0.000,0
1512337329.429,794.526,838.940,845.520,830.715,0.000,0.000,0
1512337329.434,794.526,832.360,845.520,830.715,0.000,0.000,0
1512337329.438,838.940,830.715,842.230,935.994,0.000,0.000,0
1512337329.443,830.715,835.650,845.520,935.994,0.000,0.000,0
1512337329.447,797.815,834.005,847.165,830.715,0.000,0.000,0
1512337329.452,787.946,835.650,845.520,830.715,0.000,0.000,0
1512337329.457,814.265,827.425,852.100,883.354,0.000,0.000,0
1512337329.461,834.005,824.135,848.810,935.994,0.000,0.000,0
1512337329.466,802.750,835.650,843.875,830.715,0.000,0.000,0
1512337329.470,787.946,830.715,847.165,778.076,0.000,0.000,0
1512337329.475,787.946,834.005,843.875,778.076,0.000,0.000,0
1512337329.479,837.295,834.005,848.810,883.354,0.000,0.000,0
1512337329.484,822.490,838.940,845.520,883.354,0.000,0.000,0
1512337329.488,789.591,837.295,850.455,830.715,0.000,0.000,0
1512337329.493,804.395,830.715,850.455,830.715,0.000,0.000,0
1512337329.497,824.135,834.005,847.165,883.354,0.000,0.000,0
1512337329.502,838.940,827.425,853.745,830.715,0.000,0.000,0
1512337329.506,801.105,838.940,845.520,672.797,0.000,0.000,0
1512337329.511,789.591,835.650,852.100,672.797,0.000,0.000,0
1512337329.515,810.975,827.425,848.810,725.436,0.000,0.000,0
1512337329.520,840.585,830.715,848.810,830.715,0.000,0.000,0
1512337329.524,829.070,824.135,855.390,830.715,0.000,0.000,0
1512337329.529,794.526,830.715,853.745,725.436,0.000,0.000,0
1512337329.534,794.526,832.360,850.455,725.436,0.000,0.000,0
1512337329.538,834.005,832.360,850.455,778.076,0.000,0.000,0
1512337329.543,835.650,842.230,840.585,778.076,0.000,0.000,0
1512337329.547,802.750,834.005,847.165,725.436,0.000,0.000,0
1512337329.552,799.460,837.295,848.810,725.436,0.000,0.000,0
1512337329.556,809.330,834.005,847.165,778.076,0.000,0.000,0
1512337329.561,835.650,832.360,847.165,830.715,0.000,0.000,0
1512337329.565,817.555,830.715,850.455,778.076,0.000,0.000,0
1512337329.570,799.460,832.360,848.810,725.436,0.000,0.000,0
1512337329.574,804.395,832.360,845.520,778.076,0.000,0.000,0
1512337329.579,840.585,832.360,845.520,883.354,0.000,0.000,0
1512337329.583,829.070,835.650,843.875,883.354,0.000,0.000,0
1512337329.588,802.750,830.715,850.455,830.715,0.000,0.000,0
1512337329.592,806.040,817.555,855.390,830.715,0.000,0.000,0
1512337329.597,819.200,832.360,843.875,883.354,0.000,0.000,0
1512337329.601,843.875,835.650,845.520,935.994,0.000,0.000,0
1512337329.606,799.460,830.715,847.165,883.354,0.000,0.000,0
1512337329.610,792.881,834.005,848.810,830.715,0.000,0.000,0
1512337329.615,797.815,832.360,848.810,883.354,0.000,0.000,0
1512337329.620,838.940,830.715,848.810,935.994,0.000,0.000,0
1512337329.624,824.135,840.585,842.230,883.354,0.000,0.000,0
1512337329.629,797.815,837.295,847.165,830.715,0.000,0.000,0
1512337329.633,797.815,827.425,848.810,830.715,0.000,0.000,0
1512337329.638,820.845,832.360,845.520,883.354,0.000,0.000,0
1512337329.642,832.360,837.295,843.875,883.354,0.000,0.000,0
1512337329.647,801.105,832.360,843.875,778.076,0.000,0.000,0
1512337329.651,792.881,832.360,843.875,778.076,0.000,0.000,0
1512337329.656,814.265,838.940,843.875,830.715,0.000,0.000,0
1512337329.660,838.940,837.295,845.520,883.354,0.000,0.000,0
1512337329.665,809.330,835.650,845.520,830.715,0.000,0.000,0
1512337329.669,779.721,837.295,845.520,778.076,0.000,0.000,0
1512337329.674,806.040,824.135,850.455,778.076,0.000,0.000,0
1512337329.678,829.070,829.070,848.810,830.715,0.000,0.000,0
1512337329.683,835.650,842.230,847.165,830.715,0.000,0.000,0
1512337329.687,801.105,842.230,848.810,778.076,0.000,0.000,0
1512337329.692,784.656,834.005,848.810,778.076,0.000,0.000,0
1512337329.697,810.975,830.715,848.810,830.715,0.000,0.000,0
1512337329.701,838.940,827.425,852.100,883.354,0.000,0.000,0
1512337329.706,804.395,830.715,853.745,778.076,0.000,0.000,0
1512337329.710,783.011,838.940,848.810,725.436,0.000,0.000,0
1512337329.715,801.105,835.650,848.810,778.076,0.000,0.000,0
1512337329.719,830.715,824.135,850.455,778.076,0.000,0.000,0
1512337329.724,812.620,832.360,845.520,778.076,0.000,0.000,0
1512337329.728,786.301,838.940,847.165,725.436,0.000,0.000,0
1512337329.733,789.591,832.360,850.455,725.436,0.000,0.000,0
1512337329.737,810.975,832.360,848.810,830.715,0.000,0.000,0
1512337329.742,847.165,824.135,850.455,830.715,0.000,0.000,0
1512337329.746,792.881,827.425,847.165,725.436,0.000,0.000,0
1512337329.751,776.431,832.360,843.875,725.436,0.000,0.000,0
1512337329.755,797.815,834.005,843.875,778.076,0.000,0.000,0
1512337329.760,827.425,835.650,845.520,883.354,0.000,0.000,0
1512337329.764,825.780,830.715,848.810,883.354,0.000,0.000,0
1512337329.769,787.946,830.715,848.810,778.076,0.000,0.000,0
1512337329.774,789.591,830.715,847.165,778.076,0.000,0.000,0
1512337329.778,825.780,830.715,847.165,883.354,0.000,0.000,0
1512337329.783,840.585,834.005,848.810,883.354,0.000,0.000,0
1512337329.787,802.750,835.650,848.810,778.076,0.000,0.000,0
1512337329.792,792.881,840.585,847.165,778.076,0.000,0.000,0
1512337329.796,810.975,837.295,848.810,830.715,0.000,0.000,0
1512337329.801,829.070,840.585,848.810,883.354,0.000,0.000,0
1512337329.805,827.425,835.650,847.165,830.715,0.000,0.000,0
1512337329.810,791.236,835.650,847.165,778.076,0.000,0.000,0
1512337329.814,809.330,835.650,845.520,778.076,0.000,0.000,0
1512337329.819,834.005,830.715,848.810,883.354,0.000,0.000,0
1512337329.823,832.360,829.070,853.745,883.354,0.000,0.000,0
1512337329.828,801.105,832.360,850.455,778.076,0.000,0.000,0
1512337329.832,799.460,838.940,847.165,778.076,0.000,0.000,0
1512337329.837,824.135,832.360,850.455,830.715,0.000,0.000,0
1512337329.841,835.650,838.940,847.165,883.354,0.000,0.000,0
1512337329.846,817.555,834.005,853.745,830.715,0.000,0.000,0
1512337329.851,799.460,835.650,848.810,778.076,0.000,0.000,0
1512337329.855,810.975,835.650,847.165,830.715,0.000,0.000,0
1512337329.860,829.070,835.650,848.810,935.994,0.000,0.000,0
1512337329.864,825.780,830.715,852.100,876.775,0.000,0.000,0
1512337329.869,802.750,832.360,853.745,824.135,0.000,0.000,0
1512337329.873,801.105,829.070,853.745,876.775,0.000,0.000,0
1512337329.878,834.005,827.425,850.455,929.414,0.000,0.000,0
1512337329.882,838.940,835.650,848.810,929.414,0.000,0.000,0
1512337329.887,804.395,840.585,848.810,876.775,0.000,0.000,0
1512337329.891,799.460,830.715,850.455,876.775,0.000,0.000,0
1512337329.896,807.685,835.650,843.875,876.775,0.000,0.000,0
1512337329.900,837.295,842.230,843.875,929.414,0.000,0.000,0
1512337329.905,822.490,840.585,843.875,876.775,0.000,0.000,0
1512337329.909,806.040,835.650,848.810,824.135,0.000,0.000,0
1512337329.914,804.395,832.360,848.810,824.135,0.000,0.000,0
1512337329.918,825.780,830.715,850.455,876.775,0.000,0.000,0
1512337329.923,840.585,837.295,850.455,876.775,0.000,0.000,0
1512337329.928,806.040,843.875,852.100,771.496,0.000,0.000,1
1512337329.932,802.750,834.005,852.100,771.496,0.000,0.000,0
1512337329.937,829.070,834.005,847.165,824.135,0.000,0.000,0
1512337329.941,834.005,834.005,847.165,929.414,0.000,0.000,0
1512337329.946,809.330,832.360,848.810,929.414,0.000,0.000,0
1512337329.950,789.591,834.005,847.165,876.775,0.000,0.000,0
1512337329.955,801.105,832.360,847.165,876.775,0.000,0.000,0
1512337329.959,830.715,834.005,843.875,929.414,0.000,0.000,0
1512337329.964,829.070,832.360,843.875,929.414,0.000,0.000,0
1512337329.968,799.460,835.650,847.165,824.135,0.000,0.000,0
1512337329.973,807.685,829.070,850.455,824.135,0.000,0.000,0
1512337329.977,819.200,829.070,847.165,876.775,0.000,0.000,0
1512337329.982,835.650,835.650,847.165,929.414,0.000,0.000,0
1512337329.986,806.040,829.070,848.810,824.135,0.000,0.000,0
1512337329.991,779.721,837.295,843.875,771.496,0.000,0.000,0
1512337329.995,817.555,832.360,850.455,824.135,0.000,0.000,0
1512337330.000,832.360,835.650,850.455,876.775,0.000,0.000,0
1512337330.004,830.715,834.005,852.100,876.775,0.000,0.000,0
1512337330.009,789.591,829.070,852.100,771.496,0.000,0.000,0
1512337330.014,801.105,832.360,852.100,824.135,0.000,0.000,0
1512337330.018,827.425,825.780,853.745,876.775,0.000,0.000,0
1512337330.023,825.780,835.650,850.455,876.775,0.000,0.000,0
1512337330.027,810.975,834.005,850.455,824.135,0.000,0.000,0
1512337330.032,796.170,834.005,848.810,824.135,0.000,0.000,0
1512337330.036,815.910,834.005,848.810,876.775,0.000,0.000,0
1512337330.041,832.360,827.425,853.745,929.414,0.000,0.000,0
1512337330.045,806.040,835.650,848.810,876.775,0.000,0.000,0
1512337330.050,794.526,835.650,850.455,824.135,0.000,0.000,0
1512337330.054,801.105,834.005,843.875,824.135,0.000,0.000,0
1512337330.059,842.230,840.585,843.875,929.414,0.000,0.000,0
1512337330.063,843.875,835.650,852.100,929.414,0.000,0.000,0
1512337330.068,802.750,837.295,852.100,824.135,0.000,0.000,0
1512337330.072,791.236,837.295,850.455,824.135,0.000,0.000,0
1512337330.077,822.490,835.650,848.810,876.775,0.000,0.000,0
1512337330.081,838.940,830.715,843.875,929.414,0.000,0.000,0
1512337330.086,809.330,834.005,845.520,824.135,0.000,0.000,0
1512337330.091,792.881,835.650,845.520,771.496,0.000,0.000,0
1512337330.095,806.040,830.715,843.875,824.135,0.000,0.000,0
1512337330.100,832.360,829.070,842.230,876.775,0.000,0.000,0
1512337330.104,832.360,834.005,845.520,876.775,0.000,0.000,0
1512337330.109,796.170,820.845,847.165,771.496,0.000,0.000,0
1512337330.113,792.881,824.135,840.585,771.496,0.000,0.000,0
1512337330.118,817.555,829.070,843.875,876.775,0.000,0.000,0
1512337330.122,827.425,830.715,843.875,876.775,0.000,0.000,0
1512337330.127,792.881,837.295,843.875,771.496,0.000,0.000,0
1512337330.131,783.011,829.070,848.810,771.496,0.000,0.000,0
1512337330.136,801.105,830.715,842.230,824.135,0.000,0.000,0
1512337330.140,834.005,834.005,842.230,876.775,0.000,0.000,0
1512337330.145,810.975,835.650,843.875,824.135,0.000,0.000,0
1512337330.149,783.011,832.360,847.165,771.496,0.000,0.000,0
1512337330.154,797.815,834.005,845.520,771.496,0.000,0.000,0
1512337330.158,832.360,837.295,848.810,929.414,0.000,0.000,0
1512337330.163,832.360,835.650,850.455,982.053,0.000,0.000,0
1512337330.168,792.881,838.940,847.165,876.775,0.000,0.000,0
1512337330.172,784.656,832.360,845.520,876.775,0.000,0.000,0
1512337330.177,819.200,834.005,847.165,929.414,0.000,0.000,0
1512337330.181,845.520,835.650,847.165,982.053,0.000,0.000,0
1512337330.186,824.135,835.650,850.455,929.414,0.000,0.000,0
1512337330.190,801.105,827.425,852.100,876.775,0.000,0.000,0
1512337330.195,799.460,834.005,845.520,876.775,0.000,0.000,0
1512337330.199,835.650,842.230,843.875,929.414,0.000,0.000,0
1512337330.204,825.780,837.295,848.810,929.414,0.000,0.000,0
1512337330.208,796.170,829.070,852.100,824.135,0.000,0.000,0
1512337330.213,797.815,827.425,847.165,824.135,0.000,0.000,0
1512337330.217,819.200,827.425,848.810,876.775,0.000,0.000,0
1512337330.222,835.650,835.650,843.875,876.775,0.000,0.000,0
1512337330.226,801.105,835.650,848.810,824.135,0.000,0.000,0
1512337330.231,791.236,827.425,850.455,876.775,0.000,0.000,0
1512337330.235,824.135,834.005,847.165,929.414,0.000,0.000,0
1512337330.240,847.165,840.585,847.165,982.053,0.000,0.000,0
1512337330.245,835.650,840.585,850.455,982.053,0.000,0.000,0
1512337330.249,804.395,837.295,848.810,929.414,0.000,0.000,0
1512337330.254,812.620,835.650,850.455,929.414,0.000,0.000,0
1512337330.258,835.650,830.715,848.810,982.053,0.000,0.000,0
1512337330.263,832.360,840.585,843.875,982.053,0.000,0.000,0
1512337330.267,814.265,832.360,852.100,876.775,0.000,0.000,0
1512337330.272,796.170,837.295,845.520,876.775,0.000,0.000,0
1512337330.276,830.715,835.650,852.100,929.414,0.000,0.000,0
1512337330.281,858.680,835.650,850.455,982.053,0.000,0.000,0
1512337330.285,824.135,838.940,853.745,929.414,0.000,0.000,0
1512337330.290,797.815,838.940,850.455,876.775,0.000,0.000,0
1512337330.294,815.910,838.940,848.810,876.775,0.000,0.000,0
1512337330.299,842.230,835.650,850.455,929.414,0.000,0.000,0
1512337330.303,838.940,838.940,848.810,982.053,0.000,0.000,0
1512337330.308,801.105,840.585,852.100,876.775,0.000,0.000,0
1512337330.312,804.395,837.295,850.455,876.775,0.000,0.000,0
1512337330.317,825.780,835.650,845.520,929.414,0.000,0.000,0
1512337330.322,850.455,832.360,852.100,982.053,0.000,0.000,0
1512337330.326,810.975,835.650,852.100,876.775,0.000,0.000,0
1512337330.331,796.170,842.230,848.810,824.135,0.000,0.000,0
1512337330.335,814.265,832.360,850.455,876.775,0.000,0.000,0
1512337330.340,842.230,837.295,843.875,929.414,0.000,0.000,0
1512337330.344,838.940,837.295,847.165,929.414,0.000,0.000,0
1512337330.349,792.881,832.360,850.455,824.135,0.000,0.000,0
1512337330.353,804.395,837.295,847.165,824.135,0.000,0.000,0
1512337330.358,832.360,837.295,850.455,876.775,0.000,0.000,0
1512337330.362,842.230,835.650,848.810,876.775,0.000,0.000,0
1512337330.367,806.040,838.940,848.810,771.496,0.000,0.000,0
1512337330.371,789.591,832.360,848.810,771.496,0.000,0.000,0
1512337330.376,809.330,829.070,845.520,876.775,0.000,0.000,0
1512337330.380,837.295,832.360,843.875,982.053,0.000,0.000,0
1512337330.385,822.490,834.005,848.810,929.414,0.000,0.000,0
1512337330.389,801.105,835.650,845.520,824.135,0.000,0.000,0
1512337330.394,812.620,840.585,842.230,824.135,0.000,0.000,0
1512337330.398,842.230,837.295,847.165,929.414,0.000,0.000,0
1512337330.403,842.230,834.005,845.520,929.414,0.000,0.000,0
1512337330.408,809.330,827.425,848.810,824.135,0.000,0.000,0
1512337330.412,789.591,835.650,843.875,824.135,0.000,0.000,0
1512337330.417,810.975,840.585,843.875,876.775,0.000,0.000,0
1512337330.421,842.230,837.295,845.520,929.414,0.000,0.000,0
1512337330.426,820.845,830.715,852.100,876.775,0.000,0.000,0
1512337330.430,799.460,824.135,853.745,824.135,0.000,0.000,0
1512337330.435,817.555,830.715,847.165,824.135,0.000,0.000,0
1512337330.439,835.650,835.650,848.810,876.775,0.000,0.000,0
1512337330.444,835.650,838.940,850.455,876.775,0.000,0.000,0
1512337330.448,807.685,834.005,848.810,766.561,0.000,0.000,0
1512337330.453,801.105,832.360,850.455,819.200,0.000,0.000,0
1512337330.457,827.425,837.295,845.520,924.479,0.000,0.000,0
1512337330.462,834.005,832.360,848.810,977.118,0.000,0.000,0
1512337330.466,801.105,829.070,847.165,871.840,0.000,0.000,0
1512337330.471,794.526,822.490,848.810,819.200,0.000,0.000,0
1512337330.475,807.685,815.910,850.455,871.840,0.000,0.000,0
1512337330.480,827.425,827.425,847.165,924.479,0.000,0.000,0
1512337330.485,824.135,840.585,845.520,871.840,0.000,0.000,0
1512337330.489,779.721,845.520,842.230,819.200,0.000,0.000,0
1512337330.494,794.526,840.585,845.520,819.200,0.000,0.000,0
1512337330.498,825.780,834.005,847.165,871.840,0.000,0.000,0
1512337330.503,824.135,834.005,848.810,871.840,0.000,0.000,0
1512337330.507,792.881,835.650,850.455,766.561,0.000,0.000,0
1512337330.512,783.011,835.650,850.455,766.561,0.000,0.000,0
1512337330.516,801.105,838.940,848.810,819.200,0.000,0.000,0
1512337330.521,837.295,834.005,853.745,924.479,0.000,0.000,0
1512337330.525,807.685,830.715,848.810,871.840,0.000,0.000,0
1512337330.530,787.946,837.295,843.875,871.840,0.000,0.000,0
1512337330.534,799.460,829.070,850.455,871.840,0.000,0.000,0
1512337330.539,819.200,837.295,847.165,924.479,0.000,0.000,0
1512337330.543,829.070,835.650,852.100,924.479,0.000,0.000,1
1512337330.548,794.526,837.295,850.455,819.200,0.000,0.000,0
1512337330.552,791.236,834.005,852.100,819.200,0.000,0.000,0
1512337330.557,822.490,824.135,852.100,871.840,0.000,0.000,0
1512337330.562,827.425,834.005,845.520,871.840,0.000,0.000,0
1512337330.566,804.395,834.005,847.165,819.200,0.000,0.000,0
1512337330.571,783.011,835.650,845.520,766.561,0.000,0.000,0
1512337330.575,806.040,837.295,847.165,819.200,0.000,0.000,0
1512337330.580,834.005,830.715,848.810,871.840,0.000,0.000,0
1512337330.584,819.200,832.360,850.455,871.840,0.000,0.000,0
1512337330.589,783.011,835.650,845.520,766.561,0.000,0.000,0
1512337330.593,791.236,838.940,848.810,766.561,0.000,0.000,0
1512337330.598,824.135,830.715,848.810,871.840,0.000,0.000,0
1512337330.602,822.490,834.005,847.165,924.479,0.000,0.000,0
1512337330.607,796.170,838.940,847.165,819.200,0.000,0.000,0
1512337330.611,797.815,835.650,847.165,819.200,0.000,0.000,0
1512337330.616,809.330,838.940,848.810,871.840,0.000,0.000,0
1512337330.620,847.165,830.715,853.745,924.479,0.000,0.000,0
1512337330.625,817.555,829.070,850.455,871.840,0.000,0.000,0
1512337330.629,784.656,840.585,847.165,819.200,0.000,0.000,0
1512337330.634,807.685,840.585,843.875,819.200,0.000,0.000,0
1512337330.639,838.940,834.005,843.875,924.479,0.000,0.000,0
1512337330.643,837.295,830.715,847.165,924.479,0.000,0.000,0
1512337330.648,801.105,825.780,847.165,819.200,0.000,0.000,0
1512337330.652,791.236,830.715,845.520,819.200,0.000,0.000,0
1512337330.657,817.555,834.005,847.165,871.840,0.000,0.000,0
1512337330.661,837.295,830.715,847.165,924.479,0.000,0.000,0
1512337330.666,806.040,830.715,845.520,819.200,0.000,0.000,0
1512337330.670,789.591,834.005,840.585,713.921,0.000,0.000,0
1512337330.675,797.815,832.360,845.520,766.561,0.000,0.000,0
1512337330.679,832.360,832.360,843.875,819.200,0.000,0.000,0
1512337330.684,827.425,834.005,850.455,819.200,0.000,0.000,0
1512337330.688,792.881,825.780,853.745,713.921,0.000,0.000,0
1512337330.693,787.946,827.425,847.165,713.921,0.000,0.000,0
1512337330.697,822.490,832.360,848.810,819.200,0.000,0.000,0
1512337330.702,835.650,830.715,850.455,871.840,0.000,0.000,0
1512337330.706,796.170,838.940,847.165,766.561,0.000,0.000,0
1512337330.711,794.526,832.360,852.100,766.561,0.000,0.000,0
1512337330.716,806.040,832.360,850.455,819.200,0.000,0.000,0
1512337330.720,838.940,835.650,850.455,871.840,0.000,0.000,0
1512337330.725,829.070,835.650,855.390,871.840,0.000,0.000,0
1512337330.729,794.526,835.650,850.455,766.561,0.000,0.000,0
1512337330.734,794.526,834.005,848.810,766.561,0.000,0.000,0
1512337330.738,834.005,835.650,847.165,871.840,0.000,0.000,0
1512337330.743,850.455,837.295,850.455,924.479,0.000,0.000,0
1512337330.747,797.815,835.650,850.455,871.840,0.000,0.000,0
1512337330.752,801.105,834.005,852.100,871.840,0.000,0.000,0
1512337330.756,809.330,838.940,848.810,924.479,0.000,0.000,0
1512337330.761,842.230,834.005,852.100,977.118,0.000,0.000,0
1512337330.765,812.620,834.005,850.455,924.479,0.000,0.000,0
1512337330.770,791.236,827.425,852.100,871.840,0.000,0.000,0
1512337330.774,792.881,829.070,848.810,871.840,0.000,0.000,0
1512337330.779,829.070,840.585,847.165,924.479,0.000,0.000,0
1512337330.783,832.360,835.650,850.455,924.479,0.000,0.000,0
1512337330.788,787.946,840.585,847.165,819.200,0.000,0.000,0
1512337330.793,789.591,830.715,852.100,819.200,0.000,0.000,0
1512337330.797,822.490,832.360,848.810,871.840,0.000,0.000,0
1512337330.802,837.295,830.715,848.810,924.479,0.000,0.000,0
1512337330.806,807.685,838.940,847.165,819.200,0.000,0.000,0
1512337330.811,787.946,837.295,852.100,766.561,0.000,0.000,0
1512337330.815,801.105,840.585,848.810,871.840,0.000,0.000,0
1512337330.820,847.165,834.005,855.390,977.118,0.000,0.000,0
1512337330.824,824.135,834.005,850.455,924.479,0.000,0.000,0
1512337330.829,797.815,837.295,848.810,871.840,0.000,0.000,0
1512337330.833,806.040,834.005,855.390,871.840,0.000,0.000,0
1512337330.838,834.005,830.715,857.035,924.479,0.000,0.000,0
1512337330.842,835.650,832.360,855.390,924.479,0.000,0.000,0
1512337330.847,802.750,845.520,852.100,819.200,0.000,0.000,0
1512337330.851,797.815,838.940,853.745,819.200,0.000,0.000,0
1512337330.856,817.555,834.005,853.745,871.840,0.000,0.000,0
1512337330.860,858.680,829.070,855.390,924.479,0.000,0.000,0
1512337330.865,824.135,827.425,855.390,871.840,0.000,0.000,0
1512337330.869,796.170,838.940,848.810,766.561,0.000,0.000,0
1512337330.874,806.040,840.585,848.810,819.200,0.000,0.000,0
