timestamps,TP9,FP1,FP2,TP10,n/a,n/a,Marker0
1507857701.067,849.358,826.534,652.029,842.436,0.000,0.000,0
1507857701.069,834.622,859.022,1453.957,824.889,0.000,0.000,0
1507857701.071,846.000,877.323,1221.946,836.267,0.000,0.000,0
1507857701.073,853.471,798.706,90.200,842.847,0.000,0.000,0
1507857701.075,859.502,810.975,547.641,844.149,0.000,0.000,0
1507857701.077,853.265,834.759,782.736,844.081,0.000,0.000,0
1507857701.079,843.190,829.824,697.814,851.003,0.000,0.000,0
1507857701.081,834.690,822.559,626.806,861.901,0.000,0.000,0
1507857701.083,840.654,799.323,296.987,879.927,0.000,0.000,0
1507857701.085,834.896,831.675,938.530,837.638,0.000,0.000,0
1507857701.087,838.940,853.676,1306.457,824.204,0.000,0.000,0
1507857701.089,850.386,862.929,1114.269,837.569,0.000,0.000,0
1507857701.091,856.007,824.341,674.236,853.745,0.000,0.000,0
1507857701.093,858.611,818.583,679.720,861.284,0.000,0.000,0
1507857701.095,860.667,825.712,753.264,853.471,0.000,0.000,0
1507857701.097,865.054,801.517,429.408,867.727,0.000,0.000,0
1507857701.099,854.979,831.195,770.879,852.305,0.000,0.000,0
1507857701.101,849.495,828.864,976.570,843.052,0.000,0.000,0
1507857701.103,834.416,883.766,1609.065,838.323,0.000,0.000,0
1507857701.105,852.168,833.251,422.554,868.001,0.000,0.000,0
1507857701.107,849.016,788.357,123.236,877.323,0.000,0.000,0
1507857701.109,839.351,817.281,555.181,861.901,0.000,0.000,0
1507857701.111,836.198,834.965,725.779,849.906,0.000,0.000,0
1507857701.113,849.084,842.367,811.249,853.676,0.000,0.000,0
1507857701.115,866.905,833.525,626.600,869.920,0.000,0.000,0
1507857701.117,852.237,810.975,849.016,837.158,0.000,0.000,0
1507857701.119,842.778,820.640,772.250,817.966,0.000,0.000,0
1507857701.121,837.226,862.724,1395.834,823.998,0.000,0.000,0
1507857701.123,839.900,822.627,548.327,850.660,0.000,0.000,0
1507857701.125,831.058,806.657,473.686,859.091,0.000,0.000,0
1507857701.127,839.625,819.680,644.627,852.922,0.000,0.000,0
1507857701.129,847.850,830.235,758.473,852.031,0.000,0.000,0
1507857701.131,849.016,806.931,601.514,854.636,0.000,0.000,0
1507857701.133,846.205,830.578,596.717,829.276,0.000,0.000,0
1507857701.135,836.678,832.497,1014.610,821.805,0.000,0.000,0
1507857701.137,844.560,880.202,1543.471,836.884,0.000,0.000,0
1507857701.139,849.701,824.615,288.626,871.497,0.000,0.000,0
1507857701.141,828.385,794.046,204.320,861.970,0.000,0.000,0
1507857701.143,833.594,818.857,600.623,857.103,0.000,0.000,0
1507857701.145,843.464,839.831,830.921,861.490,0.000,0.000,0
1507857701.147,847.439,842.778,852.374,849.221,0.000,0.000,0
1507857701.149,854.636,816.459,442.226,872.456,0.000,0.000,0
1507857701.151,830.509,825.643,1034.144,835.376,0.000,0.000,0
1507857701.153,830.441,816.938,882.875,815.019,0.000,0.000,0
1507857701.155,845.520,806.726,541.267,807.754,0.000,0.000,0
1507857701.157,836.952,812.483,615.223,805.972,0.000,0.000,0
1507857701.159,832.771,832.223,951.347,794.251,0.000,0.000,0
1507857701.161,825.575,832.497,1112.281,772.935,0.000,0.000,0
1507857701.163,837.021,822.970,849.564,784.450,0.000,0.000,0
1507857701.165,845.040,823.792,755.320,792.812,0.000,0.000,0
1507857701.167,847.713,830.647,713.442,793.497,0.000,0.000,0
1507857701.169,846.411,842.984,895.966,797.199,0.000,0.000,0
1507857701.171,837.706,830.167,930.990,802.682,0.000,0.000,0
1507857701.173,834.896,813.648,532.974,814.882,0.000,0.000,0
1507857701.175,842.984,855.870,1144.632,817.898,0.000,0.000,0
1507857701.177,860.188,845.931,902.889,840.105,0.000,0.000,0
1507857701.179,841.682,828.179,657.992,849.632,0.000,0.000,0
1507857701.181,851.277,825.575,575.195,856.075,0.000,0.000,0
1507857701.183,862.381,811.181,755.594,873.485,0.000,0.000,1
1507857701.185,848.467,828.042,578.416,865.191,0.000,0.000,0
1507857701.187,823.587,862.724,1331.063,837.158,0.000,0.000,0
1507857701.189,842.093,853.950,906.727,844.560,0.000,0.000,0
1507857701.191,857.652,827.425,678.212,861.901,0.000,0.000,0
1507857701.193,853.882,826.123,700.008,873.142,0.000,0.000,0
1507857701.195,843.052,823.587,524.337,878.488,0.000,0.000,0
1507857701.197,838.460,816.459,827.151,860.942,0.000,0.000,0
1507857701.199,840.928,824.067,635.168,866.562,0.000,0.000,0
1507857701.201,827.082,878.145,1587.543,861.627,0.000,0.000,0
1507857701.203,844.149,884.108,1291.789,867.521,0.000,0.000,0
1507857701.205,855.184,804.464,37.492,868.550,0.000,0.000,0
1507857701.207,849.084,798.432,247.295,867.727,0.000,0.000,0
1507857701.209,854.841,833.662,745.313,874.513,0.000,0.000,0
1507857701.211,842.847,842.161,781.708,868.824,0.000,0.000,0
1507857701.213,832.154,828.796,626.875,863.341,0.000,0.000,0
1507857701.215,840.996,827.768,729.138,866.219,0.000,0.000,0
1507857701.217,861.970,832.154,809.673,878.419,0.000,0.000,0
1507857701.219,852.854,807.068,714.812,884.108,0.000,0.000,0
1507857701.221,838.392,823.861,470.190,855.801,0.000,0.000,0
1507857701.222,819.611,833.251,952.718,821.256,0.000,0.000,0
1507857701.224,815.362,840.722,784.450,834.005,0.000,0.000,0
1507857701.226,817.555,828.385,625.915,852.922,0.000,0.000,0
1507857701.228,829.961,830.989,709.055,857.309,0.000,0.000,0
1507857701.230,844.903,814.471,542.090,860.462,0.000,0.000,0
1507857701.232,851.483,847.370,769.234,831.126,0.000,0.000,0
1507857701.234,844.012,835.924,911.867,822.079,0.000,0.000,0
1507857701.236,838.529,860.530,1029.758,831.469,0.000,0.000,0
1507857701.238,827.905,833.320,639.623,844.629,0.000,0.000,0
1507857701.240,829.755,825.300,581.226,847.987,0.000,0.000,0
1507857701.242,839.283,834.759,700.145,852.443,0.000,0.000,0
1507857701.244,853.539,846.274,806.040,854.156,0.000,0.000,0
1507857701.246,864.094,850.660,853.676,860.805,0.000,0.000,0
1507857701.248,858.817,816.253,541.747,865.328,0.000,0.000,0
1507857701.250,837.912,827.425,534.413,838.666,0.000,0.000,0
1507857701.252,831.675,866.425,1438.878,818.995,0.000,0.000,0
1507857701.254,851.894,867.247,876.569,841.339,0.000,0.000,0
1507857701.256,865.877,820.228,451.273,854.841,0.000,0.000,0
1507857701.258,867.521,830.509,714.196,855.938,0.000,0.000,0
1507857701.260,854.567,832.292,685.546,856.829,0.000,0.000,0
1507857701.262,840.037,827.699,602.474,869.441,0.000,0.000,0
1507857701.264,837.912,804.601,548.121,880.750,0.000,0.000,0
1507857701.266,831.263,838.392,643.599,861.490,0.000,0.000,0
1507857701.268,818.995,828.111,958.407,844.423,0.000,0.000,0
1507857701.270,822.901,869.029,1197.683,841.545,0.000,0.000,0
1507857701.272,837.089,808.508,252.299,844.697,0.000,0.000,0
1507857701.274,847.919,820.982,617.553,849.564,0.000,0.000,0
1507857701.276,850.455,841.750,811.661,861.216,0.000,0.000,0
1507857701.278,859.639,843.464,815.636,867.042,0.000,0.000,0
1507857701.280,864.506,840.859,728.178,862.587,0.000,0.000,0
1507857701.282,846.617,817.829,794.320,855.390,0.000,0.000,0
1507857701.284,835.650,823.792,377.660,849.358,0.000,0.000,0
1507857701.286,821.531,848.810,1168.827,828.727,0.000,0.000,0
1507857701.288,835.239,848.193,801.448,850.386,0.000,0.000,0
1507857701.290,841.065,830.030,633.249,856.212,0.000,0.000,0
1507857701.292,845.794,833.525,703.229,862.312,0.000,0.000,0
1507857701.294,853.882,840.448,768.823,872.456,0.000,0.000,0
1507857701.296,866.288,821.668,407.475,893.224,0.000,0.000,0
1507857701.298,845.794,835.170,915.020,852.305,0.000,0.000,0
1507857701.300,839.557,837.775,1003.507,840.174,0.000,0.000,0
1507857701.302,830.372,889.866,1626.543,838.460,0.000,0.000,0
1507857701.304,858.131,832.497,312.546,873.485,0.000,0.000,0
1507857701.306,843.190,794.388,206.171,874.787,0.000,0.000,0
1507857701.308,837.295,820.571,612.070,858.268,0.000,0.000,0
1507857701.310,842.504,836.952,786.506,852.305,0.000,0.000,0
1507857701.312,840.311,833.662,743.668,857.652,0.000,0.000,0
1507857701.314,833.936,829.687,635.374,860.256,0.000,0.000,0
1507857701.316,840.585,808.782,749.631,859.639,0.000,0.000,0
1507857701.318,852.854,825.643,536.401,840.928,0.000,0.000,0
1507857701.320,851.483,868.550,1411.462,837.158,0.000,0.000,0
1507857701.322,856.624,859.913,967.591,843.190,0.000,0.000,0
1507857701.324,844.560,834.965,614.126,842.504,0.000,0.000,0
1507857701.326,841.202,830.921,591.370,845.040,0.000,0.000,0
1507857701.328,854.088,835.993,567.244,850.798,0.000,0.000,0
1507857701.330,849.153,829.207,867.453,837.912,0.000,0.000,0
1507857701.332,846.891,834.828,675.607,842.504,0.000,0.000,0
1507857701.334,834.896,883.834,1577.605,823.861,0.000,0.000,0
1507857701.336,840.311,865.739,839.077,834.553,0.000,0.000,0
1507857701.338,851.277,803.984,66.348,864.506,0.000,0.000,0
1507857701.340,849.495,813.648,474.303,870.880,0.000,0.000,0
1507857701.342,845.383,837.364,755.252,863.203,0.000,0.000,0
1507857701.344,849.427,840.174,789.933,863.683,0.000,0.000,0
1507857701.346,850.318,835.170,760.666,872.662,0.000,0.000,0
1507857701.348,846.479,828.796,571.768,877.871,0.000,0.000,0
1507857701.350,837.912,824.409,906.795,842.298,0.000,0.000,0
1507857701.352,836.267,822.285,508.847,823.587,0.000,0.000,0
1507857701.354,829.824,859.708,1108.991,826.671,0.000,0.000,0
1507857701.356,822.490,839.283,663.475,840.105,0.000,0.000,0
1507857701.358,828.042,832.908,658.335,846.617,0.000,0.000,0
1507857701.360,825.575,837.569,698.842,856.692,0.000,0.000,0
1507857701.362,832.360,837.295,677.047,860.462,0.000,0.000,0
1507857701.364,861.833,816.184,494.111,868.413,0.000,0.000,0
1507857701.366,867.933,849.564,781.229,850.455,0.000,0.000,0
1507857701.368,869.920,844.972,1052.033,848.604,0.000,0.000,0
1507857701.370,863.203,881.093,1153.748,849.495,0.000,0.000,0
1507857701.372,858.611,816.390,228.789,857.035,0.000,0.000,0
1507857701.374,841.065,817.075,432.835,837.089,0.000,0.000,0
1507857701.376,827.562,829.413,588.012,841.065,0.000,0.000,0
1507857701.378,823.381,837.706,681.570,847.028,0.000,0.000,0
1507857701.380,842.093,816.938,350.792,863.752,0.000,0.000,0
1507857701.382,829.961,844.286,925.781,832.840,0.000,0.000,0
1507857701.384,833.731,829.139,798.706,833.320,0.000,0.000,0
1507857701.386,839.762,887.947,1496.110,844.697,0.000,0.000,0
1507857701.388,857.583,825.232,241.744,869.441,0.000,0.000,0
1507857701.390,854.225,817.144,446.681,872.045,0.000,0.000,0
1507857701.392,855.595,841.750,739.624,877.323,0.000,0.000,0
1507857701.394,849.153,845.863,778.076,874.376,0.000,0.000,0
1507857701.396,856.075,841.887,743.874,883.354,0.000,0.000,0
1507857701.398,856.966,833.662,598.704,887.535,0.000,0.000,0
1507857701.400,846.411,824.821,927.975,848.810,0.000,0.000,0
1507857701.402,854.704,821.462,375.878,850.798,0.000,0.000,0
1507857701.404,856.898,854.293,1162.110,859.776,0.000,0.000,0
1507857701.406,848.399,850.592,873.210,844.560,0.000,0.000,0
1507857701.408,843.601,829.824,595.894,849.495,0.000,0.000,0
1507857701.410,840.516,829.550,642.159,861.696,0.000,0.000,0
1507857701.412,874.924,825.026,489.999,883.217,0.000,0.000,0
1507857701.414,863.683,836.678,1008.647,864.232,0.000,0.000,0
1507857701.416,839.214,807.891,321.045,860.736,0.000,0.000,0
1507857701.418,819.611,862.587,1439.084,846.891,0.000,0.000,0
1507857701.420,835.102,851.072,647.780,882.326,0.000,0.000,0
1507857701.422,829.618,796.582,143.387,887.124,0.000,0.000,0
1507857701.424,841.133,822.216,621.186,876.432,0.000,0.000,0
1507857701.426,853.196,838.529,838.392,878.419,0.000,0.000,0
1507857701.428,859.022,843.190,861.079,873.005,0.000,0.000,0
1507857701.430,853.196,837.432,762.174,874.033,0.000,0.000,0
1507857701.432,845.726,802.476,452.918,884.588,0.000,0.000,0
1507857701.434,828.590,824.341,650.178,841.339,0.000,0.000,0
1507857701.436,826.123,853.539,1313.311,854.019,0.000,0.000,0
1507857701.438,842.230,858.406,1046.070,878.419,0.000,0.000,0
1507857701.440,842.984,835.581,757.102,861.627,0.000,0.000,0
1507857701.442,837.706,824.821,624.270,850.935,0.000,0.000,0
1507857701.444,840.996,827.836,682.735,852.305,0.000,0.000,0
1507857701.446,853.813,809.810,628.931,857.994,0.000,0.000,0
1507857701.448,857.377,828.316,689.864,839.968,0.000,0.000,0
1507857701.450,844.081,871.291,1592.958,841.545,0.000,0.000,0
1507857701.452,835.170,885.411,1400.769,847.713,0.000,0.000,0
1507857701.454,844.081,807.891,95.889,876.363,0.000,0.000,0
1507857701.456,846.411,791.304,189.310,898.845,0.000,0.000,0
1507857701.458,869.029,829.344,732.290,890.483,0.000,0.000,0
1507857701.460,879.722,850.455,934.554,879.516,0.000,0.000,0
1507857701.462,868.892,842.436,787.946,887.947,0.000,0.000,0
1507857701.464,860.188,803.710,288.488,901.723,0.000,0.000,0
1507857701.466,848.947,831.880,881.572,865.671,0.000,0.000,0
1507857701.468,843.875,825.986,857.103,839.077,0.000,0.000,0
1507857701.470,823.107,860.942,1115.228,847.508,0.000,0.000,0
1507857701.472,844.492,813.237,378.620,883.423,0.000,0.000,0
1507857701.474,860.051,828.727,730.029,878.831,0.000,0.000,0
1507857701.476,859.160,838.803,797.404,872.525,0.000,0.000,0
1507857701.478,843.532,837.295,733.935,843.669,0.000,0.000,0
1507857701.480,834.142,808.508,305.898,851.140,0.000,0.000,0
1507857701.482,827.973,829.824,943.739,834.759,0.000,0.000,0
1507857701.484,841.407,818.446,726.396,828.659,0.000,0.000,0
1507857701.486,832.292,872.525,1410.159,826.260,0.000,0.000,0
1507857701.488,848.536,817.418,306.103,866.562,0.000,0.000,0
1507857701.490,853.334,809.330,488.559,886.028,0.000,0.000,0
1507857701.492,863.341,831.606,798.844,891.785,0.000,0.000,0
1507857701.494,859.571,840.105,836.198,914.746,0.000,0.000,0
1507857701.496,864.848,822.353,429.066,908.920,0.000,0.000,0
1507857701.498,857.720,825.986,902.546,849.701,0.000,0.000,0
1507857701.500,850.249,842.710,990.073,824.958,0.000,0.000,0
1507857701.502,839.146,893.704,1627.297,816.801,0.000,0.000,0
1507857701.504,856.486,835.924,328.448,857.720,0.000,0.000,0
1507857701.506,856.144,801.585,263.402,882.258,0.000,0.000,0
1507857701.508,856.624,824.135,642.708,898.570,0.000,0.000,0
1507857701.510,856.555,836.952,776.773,882.943,0.000,0.000,0
1507857701.512,846.617,834.896,727.835,861.353,0.000,0.000,0
1507857701.514,857.926,808.097,347.639,867.727,0.000,0.000,0
1507857701.516,838.049,836.267,905.493,825.369,0.000,0.000,0
1507857701.518,848.056,825.506,788.631,846.342,0.000,0.000,0
1507857701.520,848.947,868.687,1227.498,856.144,0.000,0.000,0
1507857701.522,852.991,826.123,521.116,847.850,0.000,0.000,0
1507857701.524,853.471,824.272,644.901,850.044,0.000,0.000,0
1507857701.526,864.369,830.921,773.895,854.225,0.000,0.000,0
1507857701.528,861.421,831.126,763.202,854.362,0.000,0.000,0
1507857701.530,874.376,810.153,362.444,872.868,0.000,0.000,0
1507857701.532,857.515,833.594,1000.011,849.084,0.000,0.000,0
1507857701.534,835.924,805.903,520.294,836.198,0.000,0.000,0
1507857701.536,820.091,857.720,1322.564,826.123,0.000,0.000,0
1507857701.538,833.320,810.358,325.226,845.246,0.000,0.000,0
1507857701.540,851.757,806.383,546.271,854.841,0.000,0.000,0
1507857701.542,857.789,828.042,843.601,880.956,0.000,0.000,0
1507857701.544,852.168,828.453,728.932,886.302,0.000,0.000,0
1507857701.546,841.339,826.671,662.790,875.609,0.000,0.000,0
1507857701.548,854.430,801.448,338.181,883.629,0.000,0.000,0
1507857701.550,840.174,828.796,887.056,844.355,0.000,0.000,0
1507857701.552,837.569,853.608,1406.458,810.564,0.000,0.000,0
1507857701.554,842.573,852.168,1035.378,839.420,0.000,0.000,0
1507857701.556,837.158,815.773,595.140,868.618,0.000,0.000,0
1507857701.558,833.183,813.374,597.608,848.056,0.000,0.000,0
1507857701.560,826.877,819.817,659.637,838.597,0.000,0.000,0
1507857701.562,827.905,825.300,561.350,858.474,0.000,0.000,0
1507857701.564,838.871,811.592,807.274,850.523,0.000,0.000,0
1507857701.566,851.963,818.104,404.665,846.342,0.000,0.000,0
1507857701.568,820.023,799.186,324.678,858.406,0.000,0.000,0
1507857701.570,824.067,792.881,246.816,849.016,0.000,0.000,0
1507857701.572,821.256,833.594,1029.826,841.065,0.000,0.000,0
1507857701.574,826.740,891.716,1600.909,850.935,0.000,0.000,0
1507857701.576,842.641,861.421,981.368,861.627,0.000,0.000,0
1507857701.578,838.734,827.014,604.119,857.583,0.000,0.000,0
1507857701.580,838.871,801.517,565.531,844.492,0.000,0.000,0
1507857701.582,833.936,817.281,553.947,837.021,0.000,0.000,0
1507857701.584,828.727,860.256,1518.934,829.070,0.000,0.000,0
1507857701.586,851.003,872.182,1253.269,881.504,0.000,0.000,0
1507857701.588,862.381,790.824,94.381,895.281,0.000,0.000,0
1507857701.590,846.205,799.049,409.394,876.089,0.000,0.000,0
1507857701.592,831.400,823.861,627.217,862.381,0.000,0.000,0
1507857701.594,824.135,830.852,675.676,835.924,0.000,0.000,0
1507857701.596,823.039,831.400,694.661,837.843,0.000,0.000,0
1507857701.598,849.495,805.355,369.778,864.369,0.000,0.000,0
1507857701.600,845.931,828.796,961.971,826.740,0.000,0.000,0
1507857701.602,842.641,845.931,1206.456,820.091,0.000,0.000,0
1507857701.604,835.993,865.739,1189.663,833.251,0.000,0.000,0
1507857701.606,844.629,831.675,698.980,844.218,0.000,0.000,0
1507857701.608,848.262,823.450,665.120,844.012,0.000,0.000,0
1507857701.610,831.058,822.696,630.781,829.824,0.000,0.000,0
1507857701.612,821.325,818.720,533.111,815.225,0.000,0.000,0
1507857701.614,825.575,811.044,834.074,809.125,0.000,0.000,0
1507857701.616,836.404,817.692,491.575,811.387,0.000,0.000,0
1507857701.618,832.223,867.796,1539.770,836.815,0.000,0.000,0
1507857701.620,857.377,858.954,822.422,840.585,0.000,0.000,0
1507857701.622,850.181,798.569,176.767,831.058,0.000,0.000,0
1507857701.624,845.040,814.334,561.418,853.813,0.000,0.000,0
1507857701.626,844.834,828.453,763.888,870.606,0.000,0.000,0
1507857701.628,848.810,836.335,840.859,868.550,0.000,0.000,0
1507857701.630,825.575,828.042,604.736,856.281,0.000,0.000,0
1507857701.632,831.743,799.803,400.210,847.850,0.000,0.000,0
1507857701.634,834.005,835.856,748.809,836.815,0.000,0.000,0
1507857701.636,836.884,829.618,949.428,840.585,0.000,0.000,0
1507857701.638,837.364,854.156,1063.685,848.467,0.000,0.000,0
1507857701.640,844.972,834.348,749.905,848.467,0.000,0.000,0
1507857701.642,844.081,825.849,663.544,853.813,0.000,0.000,0
1507857701.644,841.682,826.945,676.224,878.008,0.000,0.000,0
1507857701.646,850.318,803.573,497.538,866.973,0.000,0.000,0
1507857701.648,845.863,831.332,649.425,819.269,0.000,0.000,0
1507857701.650,830.852,842.093,1180.548,814.882,0.000,0.000,0
1507857701.652,835.307,890.071,1566.707,809.947,0.000,0.000,0
1507857701.654,859.708,818.172,162.785,841.133,0.000,0.000,0
1507857701.656,848.056,800.831,261.689,854.499,0.000,0.000,0
1507857701.658,851.483,835.444,718.856,868.413,0.000,0.000,0
1507857701.660,847.165,846.685,796.102,873.347,0.000,0.000,0
1507857701.662,837.980,839.831,705.765,892.470,0.000,0.000,0
1507857701.664,851.003,838.186,739.556,894.047,0.000,0.000,0
1507857701.666,864.917,809.193,437.359,884.725,0.000,0.000,0
1507857701.668,852.031,839.077,775.882,841.545,0.000,0.000,0
1507857701.670,834.828,858.337,1323.524,834.622,0.000,0.000,0
1507857701.672,852.100,856.898,990.895,847.233,0.000,0.000,0
1507857701.674,870.606,839.831,797.062,857.515,0.000,0.000,0
1507857701.676,878.762,837.912,775.608,862.381,0.000,0.000,0
1507857701.678,872.594,833.525,722.763,844.560,0.000,0.000,0
1507857701.680,856.555,814.745,722.626,833.525,0.000,0.000,0
1507857701.682,864.506,826.534,422.349,833.731,0.000,0.000,0
1507857701.684,858.748,844.423,1253.818,838.871,0.000,0.000,0
1507857701.686,868.687,875.609,1209.746,851.552,0.000,0.000,0
1507857701.688,865.671,801.585,81.701,861.421,0.000,0.000,0
1507857701.690,846.000,802.956,348.941,852.168,0.000,0.000,0
1507857701.692,840.928,826.466,665.806,838.597,0.000,0.000,0
1507857701.694,849.769,834.759,763.614,836.747,0.000,0.000,0
1507857701.696,853.608,833.183,700.419,845.588,0.000,0.000,0
1507857701.698,863.546,809.810,777.733,858.817,0.000,0.000,0
1507857701.700,843.875,826.808,687.533,832.086,0.000,0.000,0
1507857701.702,826.534,870.126,1482.813,796.513,0.000,0.000,0
1507857701.704,847.096,841.202,559.705,808.988,0.000,0.000,0
1507857701.706,848.947,814.814,475.262,827.905,0.000,0.000,0
1507857701.708,862.861,828.453,715.087,845.931,0.000,0.000,0
1507857701.710,875.335,837.158,690.412,853.882,0.000,0.000,0
1507857701.712,846.137,818.720,709.055,825.780,0.000,0.000,0
1507857701.714,843.943,822.764,629.753,835.993,0.000,0.000,0
1507857701.716,839.351,880.133,1579.661,854.499,0.000,0.000,0
1507857701.718,866.768,887.535,1368.761,861.490,0.000,0.000,0
1507857701.720,873.827,809.125,105.621,887.535,0.000,0.000,0
1507857701.722,855.321,792.675,192.257,863.889,0.000,0.000,0
1507857701.724,838.392,820.023,558.197,869.646,0.000,0.000,0
1507857701.726,840.996,837.775,737.500,882.052,0.000,0.000,0
1507857701.728,840.996,839.762,749.837,849.427,0.000,0.000,0
1507857701.730,849.495,842.367,784.656,848.673,0.000,0.000,0
1507857701.732,847.576,818.446,390.477,850.318,0.000,0.000,0
1507857701.734,830.578,845.657,861.010,804.532,0.000,0.000,0
1507857701.736,843.395,835.993,877.254,801.722,0.000,0.000,0
1507857701.738,872.731,871.154,1203.646,809.742,0.000,0.000,0
1507857701.740,878.488,851.552,861.010,814.265,0.000,0.000,0
1507857701.742,868.344,834.142,636.676,827.151,0.000,0.000,0
1507857701.744,870.126,834.279,618.787,842.230,0.000,0.000,0
1507857701.746,848.467,810.975,386.296,860.599,0.000,0.000,0
1507857701.748,832.703,842.641,726.739,817.281,0.000,0.000,0
1507857701.750,823.518,846.274,1052.993,802.476,0.000,0.000,0
1507857701.752,837.569,900.421,1557.591,818.995,0.000,0.000,0
1507857701.754,861.901,826.877,203.909,857.446,0.000,0.000,0
1507857701.756,863.203,812.483,372.108,865.534,0.000,0.000,0
1507857701.758,850.866,839.900,724.957,855.938,0.000,0.000,0
1507857701.760,848.673,847.028,773.483,878.899,0.000,0.000,0
1507857701.762,842.984,844.834,752.236,863.820,0.000,0.000,0
1507857701.764,864.574,833.114,460.183,855.938,0.000,0.000,0
1507857701.766,852.031,829.755,925.507,826.328,0.000,0.000,0
1507857701.768,844.081,846.205,998.229,818.241,0.000,0.000,0
1507857701.770,840.311,870.880,1184.386,810.975,0.000,0.000,0
1507857701.772,846.205,836.884,688.767,828.111,0.000,0.000,0
1507857701.774,857.720,828.659,685.546,846.959,0.000,0.000,0
1507857701.776,864.094,834.965,773.689,846.479,0.000,0.000,0
1507857701.778,842.024,832.840,646.957,869.509,0.000,0.000,0
1507857701.780,845.657,804.738,501.788,859.297,0.000,0.000,0
1507857701.782,862.998,838.392,626.326,818.446,0.000,0.000,0
1507857701.784,860.051,852.922,1258.067,817.075,0.000,0.000,0
1507857701.786,855.116,885.342,1192.337,841.545,0.000,0.000,0
1507857701.788,850.660,811.729,71.968,861.696,0.000,0.000,0
1507857701.790,838.117,818.104,426.393,864.848,0.000,0.000,0
1507857701.792,827.973,835.239,663.407,845.931,0.000,0.000,0
1507857701.794,838.734,843.258,748.946,859.845,0.000,0.000,0
1507857701.796,853.059,816.527,413.301,881.367,0.000,0.000,0
1507857701.798,837.501,844.972,855.390,839.762,0.000,0.000,0
1507857701.800,836.198,849.632,1120.917,825.095,0.000,0.000,1
1507857701.802,837.089,897.063,1529.832,834.279,0.000,0.000,0
1507857701.804,848.056,820.091,121.523,861.901,0.000,0.000,0
1507857701.806,845.383,806.040,320.223,875.541,0.000,0.000,0
1507857701.808,849.290,839.283,744.628,893.430,0.000,0.000,0
1507857701.810,856.349,847.713,822.696,876.021,0.000,0.000,0
1507857701.812,848.741,840.174,716.320,878.762,0.000,0.000,0
1507857701.814,843.258,816.733,716.937,872.594,0.000,0.000,0
1507857701.816,843.190,830.578,415.083,842.710,0.000,0.000,0
1507857701.818,833.525,849.221,1178.286,821.873,0.000,0.000,0
1507857701.820,853.128,867.384,951.004,844.149,0.000,0.000,0
1507857701.822,856.212,826.123,477.661,856.624,0.000,0.000,0
1507857701.824,850.044,828.316,597.813,868.550,0.000,0.000,0
1507857701.826,854.773,836.061,703.572,881.915,0.000,0.000,0
1507857701.828,846.822,836.061,718.171,887.261,0.000,0.000,0
1507857701.830,843.738,802.888,425.981,882.806,0.000,0.000,0
1507857701.832,836.198,832.566,688.493,844.903,0.000,0.000,0
1507857701.833,827.973,843.464,1176.024,837.775,0.000,0.000,0
1507857701.835,840.516,881.093,1201.247,846.068,0.000,0.000,0
1507857701.837,845.726,813.237,219.811,863.615,0.000,0.000,0
1507857701.839,835.787,815.636,496.716,860.393,0.000,0.000,0
1507857701.841,837.569,835.924,742.297,848.056,0.000,0.000,0
1507857701.843,840.242,842.847,777.870,849.701,0.000,0.000,0
1507857701.845,854.088,814.128,378.414,851.689,0.000,0.000,0
1507857701.847,833.868,835.513,872.456,818.720,0.000,0.000,0
1507857701.849,822.079,835.650,1053.062,805.835,0.000,0.000,0
1507857701.851,822.833,885.205,1511.052,825.917,0.000,0.000,0
1507857701.853,836.815,811.249,129.885,855.938,0.000,0.000,0
1507857701.855,853.676,807.548,468.545,870.126,0.000,0.000,0
1507857701.857,849.495,838.186,816.390,867.521,0.000,0.000,0
1507857701.859,832.017,837.089,703.503,864.985,0.000,0.000,0
1507857701.861,834.759,801.585,165.046,857.789,0.000,0.000,0
1507857701.863,842.024,780.543,40.576,852.168,0.000,0.000,0
1507857701.865,825.643,822.559,804.464,848.947,0.000,0.000,0
1507857701.867,816.390,897.748,1609.750,855.595,0.000,0.000,0
1507857701.869,844.697,839.009,423.994,883.766,0.000,0.000,0
1507857701.871,854.841,803.025,496.990,854.225,0.000,0.000,0
1507857701.873,838.940,879.927,1606.186,823.655,0.000,0.000,0
1507857701.875,832.497,863.957,1048.058,856.761,0.000,0.000,0
1507857701.877,834.074,824.272,588.492,862.861,0.000,0.000,0
1507857701.879,839.077,815.225,484.035,862.381,0.000,0.000,0
1507857701.881,823.381,810.290,861.079,835.787,0.000,0.000,0
1507857701.883,836.198,809.193,364.295,835.650,0.000,0.000,0
1507857701.885,835.924,844.081,1217.080,839.009,0.000,0.000,0
1507857701.887,835.444,840.996,890.620,834.211,0.000,0.000,0
1507857701.889,831.538,820.845,632.632,825.232,0.000,0.000,0
1507857701.891,831.743,819.200,624.750,830.441,0.000,0.000,0
1507857701.893,834.074,825.232,679.445,831.058,0.000,0.000,0
1507857701.895,834.690,823.998,640.377,839.694,0.000,0.000,0
1507857701.897,838.460,813.169,758.542,849.769,0.000,0.000,0
1507857701.899,849.221,827.973,422.075,821.873,0.000,0.000,0
1507857701.901,848.878,852.031,1298.369,825.095,0.000,0.000,0
1507857701.903,860.736,853.471,915.432,859.365,0.000,0.000,0
1507857701.905,852.511,821.873,598.087,850.318,0.000,0.000,0
1507857701.907,838.117,821.599,615.977,854.499,0.000,0.000,0
1507857701.909,832.017,824.067,562.035,860.188,0.000,0.000,0
1507857701.911,837.706,807.617,751.002,833.457,0.000,0.000,0
1507857701.913,834.759,822.764,529.067,844.286,0.000,0.000,0
1507857701.915,817.966,861.901,1453.409,852.100,0.000,0.000,0
1507857701.917,837.775,872.114,1084.453,850.455,0.000,0.000,0
1507857701.919,844.149,796.445,91.708,853.813,0.000,0.000,0
1507857701.921,841.682,806.315,498.703,866.151,0.000,0.000,0
1507857701.923,832.497,827.699,726.396,874.307,0.000,0.000,0
1507857701.925,826.603,829.961,727.904,878.077,0.000,0.000,0
1507857701.927,852.922,832.566,811.866,874.924,0.000,0.000,0
1507857701.929,876.363,809.467,460.526,884.108,0.000,0.000,0
1507857701.931,844.149,830.372,786.301,854.636,0.000,0.000,0
1507857701.933,827.219,831.606,1039.970,845.451,0.000,0.000,0
1507857701.935,837.775,868.824,1195.969,831.675,0.000,0.000,0
1507857701.937,856.761,809.125,389.586,852.511,0.000,0.000,0
1507857701.939,859.639,810.496,584.859,866.356,0.000,0.000,0
1507857701.941,855.458,821.599,736.746,868.550,0.000,0.000,0
1507857701.943,863.066,828.453,791.784,875.815,0.000,0.000,0
1507857701.945,879.516,807.754,401.786,889.386,0.000,0.000,0
1507857701.947,861.970,823.655,856.349,849.632,0.000,0.000,0
1507857701.949,858.200,802.888,375.467,844.012,0.000,0.000,0
1507857701.951,853.196,847.508,1055.461,844.012,0.000,0.000,0
1507857701.953,853.402,838.734,874.307,822.901,0.000,0.000,0
1507857701.955,842.847,822.147,687.944,820.297,0.000,0.000,0
1507857701.957,838.186,850.523,1108.374,841.956,0.000,0.000,0
1507857701.959,862.038,814.471,375.124,857.103,0.000,0.000,0
1507857701.961,843.806,832.771,1038.394,838.666,0.000,0.000,0
1507857701.963,844.903,838.529,751.825,855.938,0.000,0.000,0
1507857701.965,849.153,784.861,155.451,856.898,0.000,0.000,0
1507857701.967,847.096,840.791,1086.304,844.081,0.000,0.000,0
1507857701.969,846.685,826.671,921.600,836.061,0.000,0.000,0
1507857701.971,845.794,828.316,868.275,832.771,0.000,0.000,0
1507857701.973,850.249,861.970,1351.214,835.581,0.000,0.000,0
1507857701.975,854.362,835.856,785.752,854.293,0.000,0.000,0
1507857701.977,851.757,820.845,659.020,869.715,0.000,0.000,0
1507857701.979,853.813,798.227,390.957,900.078,0.000,0.000,0
1507857701.981,842.915,818.035,831.606,857.309,0.000,0.000,0
1507857701.983,855.458,843.464,1369.103,835.924,0.000,0.000,0
1507857701.985,875.404,867.727,1157.244,868.138,0.000,0.000,0
1507857701.987,880.407,805.218,368.407,879.173,0.000,0.000,0
1507857701.989,852.374,806.315,467.517,861.901,0.000,0.000,0
1507857701.991,836.747,815.568,576.154,848.947,0.000,0.000,0
1507857701.993,844.834,827.699,732.702,850.798,0.000,0.000,0
1507857701.995,846.068,831.880,743.600,864.026,0.000,0.000,0
1507857701.997,848.467,807.000,670.124,864.643,0.000,0.000,0
1507857701.999,860.805,830.647,534.482,837.912,0.000,0.000,0
1507857702.001,859.776,840.996,1156.353,808.782,0.000,0.000,0
1507857702.003,859.365,848.741,930.648,832.908,0.000,0.000,0
1507857702.005,846.548,821.188,547.710,828.385,0.000,0.000,0
1507857702.007,842.641,820.845,609.945,847.302,0.000,0.000,0
1507857702.009,847.370,806.589,383.623,868.275,0.000,0.000,0
1507857702.011,835.376,835.444,839.625,833.868,0.000,0.000,0
1507857702.013,843.121,823.587,764.093,821.531,0.000,0.000,0
1507857702.015,864.985,820.708,434.892,834.553,0.000,0.000,0
1507857702.017,853.539,853.950,1208.375,828.659,0.000,0.000,0
1507857702.019,856.555,838.255,872.388,846.000,0.000,0.000,0
1507857702.021,868.618,824.889,635.579,861.353,0.000,0.000,0
1507857702.023,865.534,854.362,1213.927,854.430,0.000,0.000,0
1507857702.025,863.546,825.300,499.594,862.107,0.000,0.000,0
1507857702.027,852.237,820.571,828.796,854.362,0.000,0.000,0
1507857702.029,854.225,850.249,956.556,865.397,0.000,0.000,0
1507857702.031,865.397,812.141,357.783,878.557,0.000,0.000,0
1507857702.033,855.321,840.859,955.117,851.003,0.000,0.000,0
1507857702.035,860.325,804.807,660.185,833.799,0.000,0.000,0
1507857702.037,849.016,823.998,779.926,820.160,0.000,0.000,0
1507857702.039,851.072,862.724,1444.635,823.998,0.000,0.000,0
1507857702.041,858.543,848.467,938.735,834.279,0.000,0.000,0
1507857702.043,857.583,825.095,533.796,843.121,0.000,0.000,0
1507857702.045,859.160,809.467,784.587,858.337,0.000,0.000,0
1507857702.047,865.260,818.995,436.948,859.502,0.000,0.000,0
1507857702.049,850.181,867.590,1501.250,840.996,0.000,0.000,0
1507857702.051,857.103,879.242,1166.771,860.256,0.000,0.000,0
1507857702.053,860.805,794.320,8.019,884.108,0.000,0.000,0
1507857702.055,848.878,795.965,327.145,878.351,0.000,0.000,0
1507857702.057,854.910,828.042,765.259,873.759,0.000,0.000,0
1507857702.059,862.518,840.174,820.160,897.680,0.000,0.000,0
1507857702.061,853.813,835.102,719.062,888.701,0.000,0.000,0
1507857702.063,858.406,800.420,412.547,879.996,0.000,0.000,0
1507857702.065,859.434,837.226,822.764,861.833,0.000,0.000,0
1507857702.067,847.165,824.135,929.345,846.959,0.000,0.000,0
1507857702.069,825.986,848.878,960.874,828.453,0.000,0.000,0
1507857702.071,832.566,820.777,563.886,835.787,0.000,0.000,0
1507857702.073,849.769,823.930,678.554,862.038,0.000,0.000,0
1507857702.075,862.107,836.404,816.938,861.079,0.000,0.000,0
1507857702.077,866.219,834.348,657.033,859.708,0.000,0.000,0
1507857702.079,855.390,813.991,833.594,839.831,0.000,0.000,0
1507857702.081,851.209,819.200,566.696,835.376,0.000,0.000,0
1507857702.083,839.009,862.655,1471.572,827.699,0.000,0.000,0
1507857702.085,847.370,854.567,874.033,852.511,0.000,0.000,0
1507857702.087,837.912,785.547,92.393,861.627,0.000,0.000,0
1507857702.089,827.699,804.327,514.879,856.007,0.000,0.000,0
1507857702.091,825.712,822.696,693.496,854.841,0.000,0.000,0
1507857702.093,836.678,829.207,786.026,874.787,0.000,0.000,0
1507857702.095,853.128,817.213,464.638,897.405,0.000,0.000,0
1507857702.097,834.005,832.703,1010.703,840.174,0.000,0.000,0
1507857702.099,835.239,806.794,537.634,844.972,0.000,0.000,0
1507857702.101,831.675,862.861,1358.548,855.047,0.000,0.000,0
1507857702.103,842.024,811.661,346.543,868.275,0.000,0.000,0
1507857702.105,840.379,802.613,493.426,865.260,0.000,0.000,0
1507857702.107,847.302,825.643,740.927,876.226,0.000,0.000,0
1507857702.109,854.499,835.513,822.147,885.068,0.000,0.000,0
1507857702.111,867.659,807.822,564.502,880.818,0.000,0.000,0
1507857702.113,861.216,821.462,652.166,839.009,0.000,0.000,0
1507857702.115,836.267,847.713,1392.819,816.527,0.000,0.000,0
1507857702.117,834.622,878.899,1507.693,819.954,0.000,0.000,0
1507857702.119,855.458,802.819,121.386,859.434,0.000,0.000,0
1507857702.121,847.233,787.123,247.432,856.829,0.000,0.000,0
1507857702.123,853.539,822.285,710.220,851.963,0.000,0.000,0
1507857702.125,857.103,837.706,820.023,845.726,0.000,0.000,0
1507857702.127,855.595,833.662,752.990,846.959,0.000,0.000,0
1507857702.129,857.446,831.058,715.224,856.486,0.000,0.000,0
1507857702.131,857.446,805.424,627.491,860.393,0.000,0.000,0
1507857702.133,847.576,817.692,512.823,836.130,0.000,0.000,0
1507857702.135,840.037,822.833,788.905,804.944,0.000,0.000,0
1507857702.137,838.666,831.469,1118.792,779.652,0.000,0.000,0
1507857702.139,853.882,826.123,868.001,794.731,0.000,0.000,0
1507857702.141,859.434,823.587,730.920,807.068,0.000,0.000,0
1507857702.143,847.987,824.615,737.979,806.726,0.000,0.000,0
1507857702.145,838.460,837.364,1009.881,800.214,0.000,0.000,0
1507857702.147,840.037,843.121,1042.712,796.924,0.000,0.000,0
1507857702.149,853.471,822.285,802.408,802.134,0.000,0.000,0
1507857702.151,856.418,817.555,498.086,810.838,0.000,0.000,0
1507857702.153,850.386,820.640,558.745,810.496,0.000,0.000,0
1507857702.155,851.277,841.339,998.366,811.798,0.000,0.000,0
1507857702.157,852.854,838.666,1110.156,810.701,0.000,0.000,0
1507857702.159,856.829,828.042,831.606,830.578,0.000,0.000,0
1507857702.161,846.479,823.655,689.521,854.841,0.000,0.000,0
1507857702.163,857.035,832.908,778.487,864.848,0.000,0.000,0
1507857702.165,851.140,842.984,887.261,849.769,0.000,0.000,0
1507857702.167,825.849,838.597,957.447,829.413,0.000,0.000,0
1507857702.169,834.759,824.546,540.102,848.330,0.000,0.000,0
1507857702.171,845.863,865.602,1156.078,844.492,0.000,0.000,0
1507857702.173,857.720,850.112,804.327,844.834,0.000,0.000,0
1507857702.175,858.063,835.513,699.734,849.358,0.000,0.000,0
1507857702.177,867.727,811.112,446.612,873.210,0.000,0.000,0
1507857702.179,861.627,832.086,770.605,861.696,0.000,0.000,0
1507857702.181,848.124,845.726,1230.788,861.558,0.000,0.000,0
1507857702.183,839.214,885.137,1463.141,866.836,0.000,0.000,0
1507857702.185,848.124,812.278,108.980,882.738,0.000,0.000,0
1507857702.187,842.367,805.766,319.812,871.086,0.000,0.000,0
1507857702.189,833.799,833.731,645.106,881.435,0.000,0.000,0
1507857702.191,846.685,845.863,774.100,873.759,0.000,0.000,0
1507857702.193,855.801,847.439,837.364,880.613,0.000,0.000,0
1507857702.195,849.975,840.722,752.030,890.688,0.000,0.000,0
1507857702.197,862.381,808.576,444.967,898.570,0.000,0.000,0
1507857702.199,863.957,842.436,778.555,859.845,0.000,0.000,0
1507857702.201,850.523,831.195,868.755,833.320,0.000,0.000,0
1507857702.203,850.455,851.003,979.380,846.617,0.000,0.000,0
1507857702.205,854.704,834.553,726.464,860.873,0.000,0.000,0
1507857702.207,843.190,827.219,623.790,866.768,0.000,0.000,0
1507857702.209,831.400,824.889,573.207,871.086,0.000,0.000,0
1507857702.211,834.828,810.633,637.567,869.578,0.000,0.000,0
1507857702.213,842.984,834.348,558.128,850.798,0.000,0.000,0
1507857702.215,837.432,840.996,1152.446,840.585,0.000,0.000,0
1507857702.217,840.791,884.245,1402.963,856.624,0.000,0.000,0
1507857702.219,857.377,804.601,84.237,873.485,0.000,0.000,0
1507857702.221,855.321,802.065,410.217,872.936,0.000,0.000,0
1507857702.223,848.673,824.752,703.092,871.771,0.000,0.000,0
1507857702.225,837.569,826.397,700.282,869.235,0.000,0.000,0
1507857702.227,840.516,826.808,734.826,868.413,0.000,0.000,0
1507857702.229,860.393,811.866,415.426,892.265,0.000,0.000,0
1507857702.231,834.348,834.142,1038.325,840.037,0.000,0.000,0
1507857702.233,837.432,815.430,536.195,834.142,0.000,0.000,0
1507857702.235,845.657,854.156,1139.012,852.991,0.000,0.000,0
1507857702.237,847.508,845.863,848.262,866.082,0.000,0.000,0
1507857702.239,833.045,828.385,628.931,861.833,0.000,0.000,0
1507857702.241,823.930,826.808,603.091,858.131,0.000,0.000,0
1507857702.243,819.543,828.522,623.379,854.156,0.000,0.000,0
1507857702.245,841.887,823.930,513.028,863.478,0.000,0.000,0
1507857702.247,827.425,833.114,1004.946,839.762,0.000,0.000,0
1507857702.249,831.606,815.019,450.656,834.896,0.000,0.000,0
1507857702.251,818.926,862.038,1286.923,820.297,0.000,0.000,0
1507857702.253,831.195,834.074,550.931,831.675,0.000,0.000,0
1507857702.255,846.479,825.643,623.448,839.214,0.000,0.000,0
1507857702.257,856.212,837.706,839.625,855.801,0.000,0.000,0
1507857702.259,860.599,841.682,858.406,868.207,0.000,0.000,0
1507857702.261,856.007,830.304,579.033,864.574,0.000,0.000,0
1507857702.263,830.921,823.107,883.354,842.710,0.000,0.000,0
1507857702.265,839.146,815.842,330.093,840.174,0.000,0.000,0
1507857702.267,830.098,861.284,1374.587,832.429,0.000,0.000,0
1507857702.269,844.286,841.887,567.861,864.506,0.000,0.000,0
1507857702.271,833.731,812.141,377.523,855.870,0.000,0.000,0
1507857702.273,836.267,826.808,674.648,841.819,0.000,0.000,0
1507857702.275,840.242,839.077,822.353,843.806,0.000,0.000,0
1507857702.277,839.146,836.610,762.037,845.383,0.000,0.000,0
1507857702.279,851.552,817.555,394.315,862.038,0.000,0.000,0
1507857702.281,837.638,831.880,955.254,827.699,0.000,0.000,0
1507857702.283,846.205,802.065,166.417,818.241,0.000,0.000,0
1507857702.285,851.346,806.383,189.036,831.606,0.000,0.000,0
1507857702.287,853.471,811.935,440.306,848.604,0.000,0.000,0
1507857702.289,845.383,864.574,1331.817,843.052,0.000,0.000,0
1507857702.291,843.669,892.333,1418.727,849.153,0.000,0.000,0
1507857702.293,831.606,842.641,624.613,846.617,0.000,0.000,0
1507857702.295,839.077,815.225,305.281,866.356,0.000,0.000,0
1507857702.297,842.230,825.643,909.537,832.360,0.000,0.000,0
1507857702.299,832.360,834.279,614.743,817.418,0.000,0.000,0
1507857702.301,825.712,879.996,1321.605,818.995,0.000,0.000,0
1507857702.303,833.799,841.407,585.819,840.174,0.000,0.000,0
1507857702.305,833.662,824.067,578.896,840.448,0.000,0.000,0
1507857702.307,846.411,837.775,804.258,842.847,0.000,0.000,0
1507857702.309,849.906,844.560,827.562,843.601,0.000,0.000,0
1507857702.311,853.539,837.226,656.416,846.685,0.000,0.000,0
1507857702.313,844.834,819.200,785.204,839.762,0.000,0.000,0
1507857702.315,837.295,828.453,414.535,823.107,0.000,0.000,0
1507857702.317,837.501,872.936,1402.140,821.188,0.000,0.000,0
1507857702.319,850.386,853.608,685.271,848.193,0.000,0.000,0
1507857702.321,842.093,820.914,445.995,853.608,0.000,0.000,0
1507857702.323,842.710,828.933,624.476,850.455,0.000,0.000,0
1507857702.325,844.560,838.871,742.023,838.392,0.000,0.000,0
1507857702.327,847.233,817.281,441.609,846.205,0.000,0.000,0
1507857702.329,839.009,846.891,884.451,824.752,0.000,0.000,0
1507857702.331,838.117,828.042,737.362,826.466,0.000,0.000,0
1507857702.333,834.485,893.704,1631.821,822.079,0.000,0.000,0
1507857702.335,848.673,837.912,273.067,844.286,0.000,0.000,0
1507857702.337,849.153,806.452,269.571,843.052,0.000,0.000,0
1507857702.339,849.221,834.074,693.496,844.629,0.000,0.000,0
1507857702.341,843.875,844.423,764.984,850.935,0.000,0.000,0
1507857702.343,839.488,842.298,729.000,852.168,0.000,0.000,0
1507857702.345,843.190,836.198,677.252,851.003,0.000,0.000,0
1507857702.347,847.096,838.460,777.527,860.119,0.000,0.000,0
1507857702.349,849.084,827.905,511.726,892.950,0.000,0.000,0
1507857702.351,837.706,820.845,867.933,852.100,0.000,0.000,0
1507857702.353,834.896,841.339,895.418,823.792,0.000,0.000,0
1507857702.355,833.936,875.404,1299.877,813.032,0.000,0.000,0
1507857702.357,831.058,846.205,754.566,829.824,0.000,0.000,0
1507857702.359,840.722,833.457,677.458,854.088,0.000,0.000,0
1507857702.361,858.543,811.661,516.044,853.128,0.000,0.000,0
1507857702.363,860.325,845.246,772.798,829.618,0.000,0.000,0
1507857702.365,848.878,835.856,901.449,823.107,0.000,0.000,0
1507857702.367,836.678,893.841,1495.356,819.817,0.000,0.000,0
1507857702.369,837.569,821.119,88.075,856.761,0.000,0.000,0
1507857702.371,835.033,810.427,283.074,847.919,0.000,0.000,0
1507857702.373,842.367,843.395,732.359,852.854,0.000,0.000,0
1507857702.375,842.230,854.979,767.383,858.680,0.000,0.000,0
1507857702.377,840.242,857.103,767.041,857.240,0.000,0.000,0
1507857702.379,849.427,826.328,583.968,864.094,0.000,0.000,0
1507857702.381,848.536,846.479,600.212,842.298,0.000,0.000,0
1507857702.383,849.084,870.949,1390.214,830.715,0.000,0.000,0
1507857702.385,862.587,874.170,881.161,864.711,0.000,0.000,0
1507857702.387,851.894,825.506,334.616,868.550,0.000,0.000,0
1507857702.389,839.762,829.824,522.898,862.175,0.000,0.000,0
1507857702.391,839.351,842.093,695.484,849.769,0.000,0.000,0
1507857702.393,840.516,845.314,752.441,844.423,0.000,0.000,0
1507857702.395,852.100,817.624,457.442,860.188,0.000,0.000,0
1507857702.397,846.411,845.931,671.632,831.400,0.000,0.000,0
1507857702.399,848.399,858.954,1187.265,824.889,0.000,0.000,0
1507857702.401,855.870,891.785,1248.540,830.509,0.000,0.000,0
1507857702.403,847.096,831.743,301.443,848.399,0.000,0.000,0
1507857702.405,846.205,831.812,473.069,861.833,0.000,0.000,0
1507857702.407,851.003,856.144,791.030,873.759,0.000,0.000,0
1507857702.409,846.754,858.543,786.506,873.964,0.000,0.000,0
1507857702.411,849.221,850.798,659.980,871.703,0.000,0.000,0
1507857702.413,860.051,834.074,794.868,853.196,0.000,0.000,0
1507857702.415,864.780,842.778,420.292,836.130,0.000,0.000,0
1507857702.417,845.177,867.659,1276.984,821.531,0.000,0.000,0
1507857702.419,846.685,857.652,698.568,845.657,0.000,0.000,0
1507857702.421,846.822,829.893,491.369,854.499,0.000,0.000,0
1507857702.423,841.887,837.295,610.768,854.979,0.000,0.000,0
1507857702.425,840.585,843.601,663.955,852.237,0.000,0.000,0
1507857702.427,839.420,827.494,754.086,860.667,0.000,0.000,0
1507857702.429,832.017,837.843,836.747,845.520,0.000,0.000,0
1507857702.431,842.915,841.407,656.073,832.154,0.000,0.000,0
1507857702.433,849.358,849.701,864.232,808.234,0.000,0.000,0
1507857702.435,842.161,826.397,709.809,808.097,0.000,0.000,0
1507857702.437,835.581,852.031,914.815,822.764,0.000,0.000,0
1507857702.439,835.650,839.694,666.080,837.501,0.000,0.000,0
1507857702.441,839.420,837.706,687.670,836.130,0.000,0.000,0
1507857702.443,839.420,840.996,684.860,829.687,0.000,0.000,0
1507857702.445,837.775,841.750,621.597,835.307,0.000,0.000,0
1507857702.446,837.980,821.736,730.234,843.052,0.000,0.000,0
1507857702.448,837.843,832.566,648.465,837.226,0.000,0.000,0
1507857702.450,831.675,847.987,859.708,819.543,0.000,0.000,0
1507857702.452,833.388,870.400,1402.551,806.109,0.000,0.000,0
1507857702.454,843.806,867.179,1027.496,822.216,0.000,0.000,0
1507857702.456,841.545,840.174,663.133,838.117,0.000,0.000,0
1507857702.458,843.258,832.497,555.729,855.253,0.000,0.000,0
1507857702.460,841.956,821.805,806.383,848.604,0.000,0.000,0
1507857702.462,834.965,831.126,631.124,841.202,0.000,0.000,0
1507857702.464,819.269,888.426,1587.475,838.117,0.000,0.000,0
1507857702.466,832.566,891.579,1216.669,865.123,0.000,0.000,0
1507857702.468,845.657,811.387,18.780,885.479,0.000,0.000,0
1507857702.470,846.617,814.060,344.007,874.513,0.000,0.000,0
1507857702.472,855.801,846.205,777.664,876.432,0.000,0.000,0
1507857702.474,848.536,855.801,838.186,863.135,0.000,0.000,0
1507857702.476,847.096,846.411,708.781,866.151,0.000,0.000,0
1507857702.478,849.153,815.636,556.552,876.706,0.000,0.000,0
1507857702.480,835.102,841.133,563.200,843.464,0.000,0.000,0
1507857702.482,824.958,852.443,1158.203,827.288,0.000,0.000,0
1507857702.484,844.423,874.924,978.489,843.875,0.000,0.000,0
1507857702.486,843.806,834.005,484.378,849.838,0.000,0.000,0
1507857702.488,844.218,833.251,613.098,859.434,0.000,0.000,0
1507857702.490,845.794,842.778,728.384,867.727,0.000,0.000,0
1507857702.492,849.632,846.754,738.528,870.743,0.000,0.000,0
1507857702.494,862.861,819.954,494.796,873.210,0.000,0.000,0
1507857702.496,862.587,851.757,764.230,837.501,0.000,0.000,0
1507857702.498,842.093,840.379,891.648,825.163,0.000,0.000,0
1507857702.500,840.448,875.609,1067.661,838.529,0.000,0.000,0
1507857702.502,847.987,834.759,504.598,854.636,0.000,0.000,0
1507857702.504,856.281,836.335,651.823,860.393,0.000,0.000,0
1507857702.506,857.583,846.137,754.909,866.562,0.000,0.000,0
1507857702.508,843.327,845.863,723.517,856.486,0.000,0.000,0
1507857702.510,828.385,840.585,655.388,851.620,0.000,0.000,0
1507857702.512,829.413,810.564,512.617,857.377,0.000,0.000,0
1507857702.514,826.328,838.871,735.923,826.328,0.000,0.000,0
1507857702.516,824.958,867.727,1432.709,817.555,0.000,0.000,0
1507857702.518,836.130,864.026,1014.267,839.557,0.000,0.000,1
1507857702.520,840.448,832.771,637.019,856.555,0.000,0.000,0
1507857702.522,841.887,832.840,684.655,852.168,0.000,0.000,0
1507857702.524,849.769,814.265,430.916,861.010,0.000,0.000,0
1507857702.526,842.847,837.912,806.520,844.423,0.000,0.000,0
1507857702.528,840.105,838.803,1010.224,834.622,0.000,0.000,0
1507857702.530,840.379,895.623,1637.235,831.880,0.000,0.000,0
1507857702.532,850.455,862.792,798.501,848.467,0.000,0.000,0
1507857702.534,858.817,807.206,69.638,857.720,0.000,0.000,0
1507857702.536,856.898,810.564,334.137,858.200,0.000,0.000,0
1507857702.538,858.543,840.311,750.454,857.720,0.000,0.000,0
1507857702.540,855.458,852.785,824.683,861.696,0.000,0.000,0
1507857702.542,846.342,843.738,713.442,872.319,0.000,0.000,0
1507857702.544,841.956,841.613,723.106,867.042,0.000,0.000,0
1507857702.546,857.240,824.204,372.040,881.161,0.000,0.000,0
1507857702.548,840.242,840.722,969.990,846.479,0.000,0.000,0
1507857702.550,838.049,826.877,553.604,824.889,0.000,0.000,0
1507857702.552,834.553,863.752,1083.699,822.901,0.000,0.000,0
1507857702.554,845.246,850.112,803.573,841.270,0.000,0.000,0
1507857702.556,852.854,841.407,752.167,851.620,0.000,0.000,0
1507857702.558,856.075,837.226,631.330,864.369,0.000,0.000,0
1507857702.560,849.495,816.733,694.045,860.873,0.000,0.000,0
1507857702.562,841.682,823.998,542.775,834.211,0.000,0.000,0
1507857702.564,834.896,882.806,1589.668,823.381,0.000,0.000,0
1507857702.566,850.729,890.483,1213.584,845.657,0.000,0.000,0
1507857702.568,834.074,806.383,4.798,863.203,0.000,0.000,0
1507857702.570,830.989,808.165,253.053,856.144,0.000,0.000,0
1507857702.572,846.205,840.379,727.561,831.263,0.000,0.000,0
1507857702.574,866.219,857.789,917.419,830.852,0.000,0.000,0
1507857702.576,868.618,855.253,845.794,849.564,0.000,0.000,0
1507857702.578,859.982,815.088,422.828,872.182,0.000,0.000,0
1507857702.580,837.432,838.597,695.690,843.190,0.000,0.000,0
1507857702.582,828.248,841.682,1052.925,830.921,0.000,0.000,0
1507857702.584,844.423,869.715,1081.026,843.943,0.000,0.000,0
1507857702.586,857.720,838.049,661.145,859.297,0.000,0.000,0
1507857702.588,861.010,836.335,701.927,861.147,0.000,0.000,0
1507857702.590,853.950,841.682,724.271,863.135,0.000,0.000,0
1507857702.592,852.031,838.460,551.959,875.952,0.000,0.000,0
1507857702.594,840.311,825.986,847.850,855.047,0.000,0.000,0
1507857702.596,846.000,836.884,701.790,839.214,0.000,0.000,0
1507857702.598,842.915,887.056,1595.151,809.536,0.000,0.000,0
1507857702.600,848.056,869.029,765.670,823.861,0.000,0.000,0
1507857702.602,850.935,802.134,108.911,837.158,0.000,0.000,0
1507857702.604,858.268,828.248,584.996,852.443,0.000,0.000,0
1507857702.606,851.003,849.632,786.369,864.300,0.000,0.000,0
1507857702.608,856.007,852.511,790.961,880.956,0.000,0.000,0
1507857702.610,868.344,827.562,400.347,899.187,0.000,0.000,0
1507857702.612,843.464,832.908,837.226,832.634,0.000,0.000,0
1507857702.614,835.719,850.523,1091.239,811.455,0.000,0.000,0
1507857702.616,841.065,902.066,1441.345,821.119,0.000,0.000,0
1507857702.618,852.854,834.828,278.002,847.096,0.000,0.000,0
1507857702.620,846.617,823.998,444.762,857.035,0.000,0.000,0
1507857702.622,847.096,840.448,717.006,864.643,0.000,0.000,0
1507857702.624,850.249,845.588,793.360,878.282,0.000,0.000,0
1507857702.626,851.689,844.286,691.372,875.267,0.000,0.000,0
1507857702.628,853.676,816.870,448.943,866.630,0.000,0.000,0
1507857702.630,842.298,846.342,753.264,845.657,0.000,0.000,0
1507857702.632,831.606,836.130,930.442,836.061,0.000,0.000,0
1507857702.634,835.033,864.026,1037.229,856.486,0.000,0.000,0
1507857702.636,835.513,837.226,629.205,870.674,0.000,0.000,0
1507857702.638,833.251,831.263,624.681,852.991,0.000,0.000,0
1507857702.640,842.436,836.541,715.635,844.629,0.000,0.000,0
1507857702.642,855.938,836.815,616.114,856.692,0.000,0.000,0
1507857702.644,855.527,818.378,832.429,849.769,0.000,0.000,0
1507857702.646,844.766,821.051,487.462,836.610,0.000,0.000,0
1507857702.648,827.288,880.133,1550.874,817.213,0.000,0.000,0
1507857702.650,837.295,871.360,782.599,841.476,0.000,0.000,0
1507857702.652,838.186,809.673,94.312,857.515,0.000,0.000,0
1507857702.654,843.943,834.759,574.989,865.945,0.000,0.000,0
1507857702.656,852.991,855.527,843.532,867.316,0.000,0.000,0
1507857702.658,855.184,858.406,874.376,860.599,0.000,0.000,0
1507857702.660,858.200,831.743,422.280,876.158,0.000,0.000,0
1507857702.662,834.622,846.205,969.647,842.024,0.000,0.000,0
1507857702.664,836.061,826.808,575.263,839.283,0.000,0.000,0
1507857702.666,837.569,880.339,1340.453,830.030,0.000,0.000,0
1507857702.668,855.801,846.479,536.058,854.841,0.000,0.000,0
1507857702.670,843.052,831.538,532.631,858.474,0.000,0.000,0
1507857702.672,848.604,835.513,655.525,869.509,0.000,0.000,0
1507857702.674,850.592,839.762,769.234,875.609,0.000,0.000,0
1507857702.676,834.759,836.747,712.071,864.163,0.000,0.000,0
1507857702.678,845.863,807.685,392.054,872.182,0.000,0.000,0
1507857702.680,833.251,847.028,864.094,844.834,0.000,0.000,0
1507857702.682,828.727,830.784,787.260,828.864,0.000,0.000,0
1507857702.684,822.490,857.377,1002.958,836.952,0.000,0.000,0
1507857702.686,822.147,836.404,676.293,849.701,0.000,0.000,0
1507857702.688,831.400,834.759,701.241,842.847,0.000,0.000,0
1507857702.690,835.376,834.759,742.160,848.741,0.000,0.000,0
1507857702.692,837.980,827.288,534.482,859.571,0.000,0.000,0
1507857702.694,836.815,830.852,937.228,851.003,0.000,0.000,0
1507857702.696,848.467,823.998,347.022,838.940,0.000,0.000,0
1507857702.698,839.283,871.360,1421.606,825.026,0.000,0.000,0
1507857702.700,862.792,874.718,852.854,848.262,0.000,0.000,0
1507857702.702,865.397,813.648,173.820,859.022,0.000,0.000,0
1507857702.704,856.761,830.784,554.084,869.441,0.000,0.000,0
1507857702.706,844.903,844.697,714.675,870.811,0.000,0.000,0
1507857702.708,833.662,842.641,674.442,861.627,0.000,0.000,0
1507857702.710,846.274,809.810,121.317,877.254,0.000,0.000,0
1507857702.712,836.541,792.675,56.615,872.731,0.000,0.000,0
1507857702.714,825.849,836.610,934.006,856.761,0.000,0.000,0
1507857702.716,828.864,873.964,1096.105,845.109,0.000,0.000,0
1507857702.718,831.675,874.787,1317.218,846.822,0.000,0.000,0
1507857702.720,837.432,851.689,833.388,864.094,0.000,0.000,0
1507857702.722,845.588,833.662,649.425,868.070,0.000,0.000,0
1507857702.724,860.188,840.722,739.898,869.235,0.000,0.000,0
1507857702.726,871.086,817.966,507.134,873.485,0.000,0.000,0
1507857702.728,855.664,844.903,713.030,839.831,0.000,0.000,0
1507857702.730,845.726,836.198,845.177,814.197,0.000,0.000,0
1507857702.732,864.506,847.645,425.365,814.539,0.000,0.000,0
1507857702.734,868.550,869.235,1204.400,821.531,0.000,0.000,0
1507857702.736,866.219,868.550,943.122,846.891,0.000,0.000,0
1507857702.738,856.486,840.928,593.701,844.972,0.000,0.000,0
1507857702.740,848.947,833.251,574.372,855.321,0.000,0.000,0
1507857702.742,851.757,838.871,704.943,869.920,0.000,0.000,0
1507857702.744,856.075,845.040,724.614,877.254,0.000,0.000,0
1507857702.746,859.913,822.216,590.822,890.551,0.000,0.000,0
1507857702.748,854.773,846.411,557.443,853.334,0.000,0.000,0
1507857702.750,843.395,849.632,1028.935,814.882,0.000,0.000,0
1507857702.752,846.000,859.434,886.987,826.740,0.000,0.000,0
1507857702.754,851.826,843.601,708.712,830.715,0.000,0.000,0
1507857702.756,857.172,840.791,750.659,843.121,0.000,0.000,0
1507857702.758,860.051,834.622,693.839,862.381,0.000,0.000,0
1507857702.760,868.070,821.873,779.858,858.885,0.000,0.000,0
1507857702.762,860.667,834.965,394.315,846.205,0.000,0.000,0
1507857702.764,827.082,866.905,1351.557,837.569,0.000,0.000,0
1507857702.766,836.610,884.177,1149.773,850.455,0.000,0.000,0
1507857702.768,854.636,808.371,71.625,859.091,0.000,0.000,0
1507857702.770,852.785,822.764,528.039,865.191,0.000,0.000,0
1507857702.772,857.446,845.246,739.761,877.940,0.000,0.000,0
1507857702.774,850.798,847.645,771.016,875.952,0.000,0.000,0
1507857702.776,841.407,842.573,684.655,877.391,0.000,0.000,0
1507857702.778,864.643,818.035,348.393,887.741,0.000,0.000,0
1507857702.780,856.281,844.834,935.651,856.486,0.000,0.000,0
1507857702.782,840.654,847.919,1019.134,853.059,0.000,0.000,0
1507857702.784,857.857,867.453,1016.872,866.219,0.000,0.000,0
1507857702.786,873.485,844.834,778.898,858.406,0.000,0.000,0
1507857702.788,882.395,841.956,796.513,857.583,0.000,0.000,0
1507857702.790,859.708,838.117,654.359,865.260,0.000,0.000,0
1507857702.792,856.829,808.508,336.467,880.887,0.000,0.000,0
1507857702.794,843.052,839.900,834.142,850.660,0.000,0.000,0
1507857702.796,836.815,845.588,1073.692,825.369,0.000,0.000,0
1507857702.798,841.270,897.474,1626.749,826.877,0.000,0.000,0
1507857702.800,861.558,842.093,457.442,857.172,0.000,0.000,0
1507857702.802,853.745,797.130,121.386,860.119,0.000,0.000,0
1507857702.804,848.056,826.740,563.954,865.877,0.000,0.000,0
1507857702.806,852.991,842.093,747.781,867.179,0.000,0.000,0
1507857702.808,861.558,844.286,809.330,869.783,0.000,0.000,0
1507857702.810,861.079,839.420,776.842,866.973,0.000,0.000,0
1507857702.812,868.755,807.068,388.969,883.423,0.000,0.000,0
1507857702.814,848.673,841.133,830.098,841.476,0.000,0.000,0
1507857702.816,831.949,827.973,798.295,834.211,0.000,0.000,0
1507857702.818,825.917,848.810,908.989,852.100,0.000,0.000,0
1507857702.820,847.370,834.416,708.849,878.077,0.000,0.000,0
1507857702.822,861.627,835.719,792.743,879.516,0.000,0.000,0
1507857702.824,871.565,821.599,487.531,878.694,0.000,0.000,0
1507857702.826,852.237,821.462,830.304,847.850,0.000,0.000,0
1507857702.828,847.782,823.998,827.219,829.276,0.000,0.000,0
1507857702.830,841.407,881.504,1629.422,817.007,0.000,0.000,0
1507857702.832,854.225,864.026,959.709,842.984,0.000,0.000,0
1507857702.834,859.913,789.591,35.093,857.926,0.000,0.000,0
1507857702.836,852.991,803.299,387.393,849.221,0.000,0.000,0
1507857702.838,845.931,824.478,655.936,856.555,0.000,0.000,0
1507857702.840,849.906,835.307,808.782,870.743,0.000,0.000,0
1507857702.842,849.290,834.759,764.368,868.070,0.000,0.000,0
1507857702.844,843.875,833.114,745.108,863.203,0.000,0.000,0
1507857702.846,848.673,793.018,381.087,879.516,0.000,0.000,0
1507857702.848,835.650,823.450,744.422,847.028,0.000,0.000,0
1507857702.850,828.933,829.961,1086.921,822.970,0.000,0.000,0
1507857702.852,842.710,850.249,1061.081,831.675,0.000,0.000,0
1507857702.854,843.327,829.070,748.192,850.660,0.000,0.000,0
1507857702.856,850.798,822.901,704.668,858.474,0.000,0.000,0
1507857702.858,862.175,807.068,413.987,886.576,0.000,0.000,0
1507857702.860,843.258,833.457,942.437,875.541,0.000,0.000,0
1507857702.862,838.323,811.044,652.577,859.913,0.000,0.000,0
1507857702.864,842.573,879.036,1620.648,823.792,0.000,0.000,0
1507857702.866,863.546,844.149,584.174,839.831,0.000,0.000,0
1507857702.868,856.624,791.373,73.202,849.221,0.000,0.000,0
1507857702.870,842.024,811.455,511.178,854.088,0.000,0.000,0
1507857702.872,843.601,828.522,722.352,849.016,0.000,0.000,0
1507857702.874,850.386,835.719,836.473,861.284,0.000,0.000,0
1507857702.876,843.669,834.622,791.167,874.033,0.000,0.000,0
1507857702.878,858.817,810.221,353.602,882.052,0.000,0.000,0
1507857702.880,847.919,819.337,910.360,832.771,0.000,0.000,0
1507857702.882,845.246,836.267,1109.882,816.733,0.000,0.000,0
1507857702.884,833.662,859.571,1212.762,828.316,0.000,0.000,0
1507857702.886,828.864,822.559,654.291,830.304,0.000,0.000,0
1507857702.888,824.341,808.988,575.606,843.395,0.000,0.000,0
1507857702.890,823.176,814.608,673.277,856.007,0.000,0.000,0
1507857702.892,828.796,818.446,658.403,865.054,0.000,0.000,0
1507857702.894,837.569,807.548,791.990,856.075,0.000,0.000,0
1507857702.896,846.342,821.256,421.595,848.604,0.000,0.000,0
1507857702.898,839.283,848.536,1346.005,834.348,0.000,0.000,0
1507857702.900,864.094,853.608,855.321,857.515,0.000,0.000,0
1507857702.902,879.927,805.012,398.085,870.880,0.000,0.000,0
1507857702.904,862.518,819.063,682.187,865.260,0.000,0.000,0
1507857702.906,835.102,817.007,591.096,861.970,0.000,0.000,0
1507857702.908,834.211,816.664,643.530,859.502,0.000,0.000,0
1507857702.910,842.024,793.223,463.610,857.103,0.000,0.000,0
1507857702.912,825.986,820.365,644.490,828.659,0.000,0.000,0
1507857702.914,819.406,840.585,1262.591,828.453,0.000,0.000,0
1507857702.916,830.989,874.239,1216.669,841.270,0.000,0.000,0
1507857702.918,827.562,803.641,179.851,857.172,0.000,0.000,0
1507857702.920,824.478,805.629,450.999,851.277,0.000,0.000,0
1507857702.922,832.908,829.276,743.600,847.919,0.000,0.000,0
1507857702.924,842.573,841.545,867.590,858.817,0.000,0.000,0
1507857702.926,843.738,832.086,688.973,859.297,0.000,0.000,0
1507857702.928,844.218,807.480,803.299,852.991,0.000,0.000,0
1507857702.930,838.529,808.851,368.955,857.789,0.000,0.000,0
1507857702.932,834.279,843.464,1242.577,851.620,0.000,0.000,0
1507857702.934,842.367,843.532,920.298,850.866,0.000,0.000,0
1507857702.936,838.186,819.200,618.033,847.302,0.000,0.000,0
1507857702.938,841.065,815.156,609.191,859.160,0.000,0.000,0
1507857702.940,847.782,822.901,710.974,868.344,0.000,0.000,0
1507857702.942,849.016,805.629,412.479,872.594,0.000,0.000,0
1507857702.944,830.784,834.622,919.887,848.604,0.000,0.000,0
1507857702.946,830.647,812.003,650.727,841.339,0.000,0.000,0
1507857702.948,818.172,879.859,1611.532,824.683,0.000,0.000,0
1507857702.950,827.768,822.559,249.283,847.713,0.000,0.000,0
1507857702.952,836.404,793.703,278.961,831.332,0.000,0.000,0
1507857702.954,842.298,828.864,765.327,834.690,0.000,0.000,0
1507857702.956,836.198,834.896,772.798,858.268,0.000,0.000,0
1507857702.958,847.850,833.731,807.480,866.219,0.000,0.000,0
1507857702.960,865.534,805.424,500.965,870.743,0.000,0.000,0
1507857702.962,848.193,818.515,728.452,837.775,0.000,0.000,0
1507857702.964,815.705,804.327,603.434,826.397,0.000,0.000,0
1507857702.966,818.104,834.005,809.399,835.170,0.000,0.000,0
1507857702.968,818.857,828.248,779.241,833.525,0.000,0.000,0
1507857702.970,825.095,826.123,961.148,827.562,0.000,0.000,0
1507857702.972,830.784,849.495,1089.046,829.755,0.000,0.000,0
1507857702.974,835.581,800.763,348.736,841.065,0.000,0.000,0
1507857702.976,831.675,835.650,1123.933,836.815,0.000,0.000,0
1507857702.978,853.471,824.067,594.866,867.864,0.000,0.000,0
1507857702.980,846.342,788.494,414.124,855.732,0.000,0.000,0
1507857702.982,847.645,835.444,860.667,847.096,0.000,0.000,0
1507857702.984,829.207,824.821,905.562,814.265,0.000,0.000,0
1507857702.986,813.100,822.559,991.649,788.288,0.000,0.000,0
1507857702.988,834.896,853.196,1229.623,806.452,0.000,0.000,0
1507857702.990,854.567,837.364,863.683,828.796,0.000,0.000,0
1507857702.992,849.701,823.244,622.077,843.601,0.000,0.000,0
1507857702.994,846.205,800.900,635.237,845.040,0.000,0.000,0
1507857702.996,839.146,822.490,478.072,833.183,0.000,0.000,0
1507857702.998,823.998,848.467,1374.587,813.169,0.000,0.000,0
1507857703.000,838.186,847.576,783.285,829.961,0.000,0.000,0
1507857703.002,839.283,805.081,392.876,841.339,0.000,0.000,0
1507857703.004,832.292,820.228,679.034,857.926,0.000,0.000,0
1507857703.006,830.235,827.357,696.238,856.418,0.000,0.000,0
1507857703.008,843.464,832.634,774.169,845.383,0.000,0.000,0
1507857703.010,843.258,836.061,674.785,852.648,0.000,0.000,0
1507857703.012,830.372,807.617,732.016,844.286,0.000,0.000,0
1507857703.014,815.430,820.297,530.163,821.736,0.000,0.000,0
1507857703.016,816.527,853.608,1286.649,823.176,0.000,0.000,0
1507857703.018,827.905,846.342,969.510,836.335,0.000,0.000,0
1507857703.020,835.856,823.244,694.867,839.762,0.000,0.000,0
1507857703.022,845.109,820.982,702.475,841.819,0.000,0.000,0
1507857703.024,839.283,797.815,565.256,848.467,0.000,0.000,0
1507857703.026,827.151,814.539,522.076,839.420,0.000,0.000,0
1507857703.028,814.060,831.606,1182.535,824.821,0.000,0.000,0
1507857703.030,811.387,880.681,1554.712,824.067,0.000,0.000,0
1507857703.032,828.042,828.111,530.643,841.133,0.000,0.000,0
1507857703.034,830.784,781.023,25.977,858.543,0.000,0.000,0
1507857703.036,832.703,801.859,460.732,860.256,0.000,0.000,0
1507857703.038,834.553,830.578,823.313,846.548,0.000,0.000,0
1507857703.040,835.993,836.198,838.529,850.660,0.000,0.000,0
1507857703.042,839.488,828.864,767.520,865.534,0.000,0.000,0
1507857703.044,847.645,820.708,579.856,882.532,0.000,0.000,0
1507857703.046,834.485,805.835,603.502,870.057,0.000,0.000,0
1507857703.048,849.564,836.610,795.074,865.123,0.000,0.000,0
1507857703.050,845.040,813.511,898.365,836.541,0.000,0.000,0
1507857703.052,828.659,825.095,884.657,809.467,0.000,0.000,0
1507857703.054,824.889,854.499,1262.111,809.262,0.000,0.000,0
1507857703.056,837.089,833.045,799.803,833.594,0.000,0.000,0
1507857703.058,843.532,801.791,643.256,849.016,0.000,0.000,0
1507857703.059,842.573,819.200,477.044,841.819,0.000,0.000,0
1507857703.061,821.873,855.184,1404.676,825.369,0.000,0.000,0
1507857703.063,835.376,888.221,1474.999,829.070,0.000,0.000,0
1507857703.065,856.075,820.297,238.591,850.112,0.000,0.000,0
1507857703.067,842.984,790.893,129.405,855.870,0.000,0.000,0
1507857703.069,825.300,815.293,525.845,845.383,0.000,0.000,0
1507857703.071,822.010,825.369,689.178,834.965,0.000,0.000,0
1507857703.073,829.618,827.973,743.874,853.539,0.000,0.000,0
1507857703.075,841.407,836.061,891.785,871.086,0.000,0.000,0
1507857703.077,848.467,803.710,560.321,858.680,0.000,0.000,0
1507857703.079,843.532,822.010,766.013,819.337,0.000,0.000,0
1507857703.081,826.260,850.729,1417.836,808.302,0.000,0.000,0
1507857703.083,825.506,841.613,902.477,824.958,0.000,0.000,0
1507857703.085,819.749,812.689,531.945,842.984,0.000,0.000,0
1507857703.087,832.429,818.789,656.621,854.293,0.000,0.000,0
1507857703.089,845.588,806.109,307.611,873.416,0.000,0.000,0
1507857703.091,829.618,769.577,12.612,865.328,0.000,0.000,0
1507857703.093,809.604,797.815,607.752,867.179,0.000,0.000,0
1507857703.095,808.645,880.681,1636.276,859.845,0.000,0.000,0
1507857703.097,829.618,843.258,774.306,870.537,0.000,0.000,0
1507857703.099,837.089,804.601,800.283,833.799,0.000,0.000,0
1507857703.101,837.980,813.169,735.375,817.144,0.000,0.000,0
1507857703.103,844.629,860.188,1389.734,822.970,0.000,0.000,0
1507857703.105,859.091,843.258,902.889,843.943,0.000,0.000,0
1507857703.107,855.527,828.659,723.586,851.689,0.000,0.000,0
1507857703.109,852.305,824.821,639.143,847.987,0.000,0.000,0
1507857703.111,845.588,809.604,783.148,843.806,0.000,0.000,0
1507857703.113,839.762,822.285,397.126,820.503,0.000,0.000,0
1507857703.115,833.799,846.342,1096.654,815.979,0.000,0.000,0
1507857703.117,837.226,843.395,832.703,837.775,0.000,0.000,0
1507857703.119,834.211,824.752,654.222,832.634,0.000,0.000,0
1507857703.121,822.147,820.365,629.616,838.803,0.000,0.000,0
1507857703.123,826.603,795.828,433.315,846.959,0.000,0.000,0
1507857703.125,818.926,823.861,671.426,821.736,0.000,0.000,0
1507857703.127,813.032,829.207,1096.174,811.044,0.000,0.000,0
1507857703.129,817.418,882.806,1608.242,818.241,0.000,0.000,0
1507857703.131,834.074,839.009,604.050,843.258,0.000,0.000,0
1507857703.133,825.917,779.584,53.736,855.664,0.000,0.000,0
1507857703.135,828.179,801.037,487.600,850.318,0.000,0.000,0
1507857703.137,826.466,824.752,756.143,847.439,0.000,0.000,0
1507857703.139,827.562,829.618,780.749,854.704,0.000,0.000,0
1507857703.141,826.328,828.453,755.937,853.128,0.000,0.000,1
1507857703.143,823.518,827.905,724.203,844.423,0.000,0.000,0
1507857703.145,832.566,813.374,360.593,857.789,0.000,0.000,0
1507857703.147,834.005,818.583,641.200,844.423,0.000,0.000,0
1507857703.149,831.880,818.309,865.671,824.615,0.000,0.000,0
1507857703.151,825.917,837.364,959.024,812.689,0.000,0.000,0
1507857703.153,825.437,869.920,1422.771,816.664,0.000,0.000,0
1507857703.155,842.504,821.051,537.223,838.186,0.000,0.000,0
1507857703.157,828.316,818.583,859.160,823.107,0.000,0.000,0
1507857703.159,820.434,815.430,769.919,818.446,0.000,0.000,0
1507857703.161,808.302,869.441,1514.273,815.705,0.000,0.000,0
1507857703.163,820.845,867.110,1107.277,826.397,0.000,0.000,0
1507857703.165,839.694,811.524,357.852,850.592,0.000,0.000,0
1507857703.167,837.089,787.055,214.944,853.402,0.000,0.000,0
1507857703.169,828.042,813.306,632.906,853.471,0.000,0.000,0
1507857703.171,828.659,827.836,749.357,851.414,0.000,0.000,0
1507857703.173,841.270,835.513,801.448,850.249,0.000,0.000,0
1507857703.175,837.089,833.525,737.568,857.515,0.000,0.000,0
1507857703.177,842.161,804.738,337.358,867.247,0.000,0.000,0
1507857703.179,832.908,839.831,1088.703,844.766,0.000,0.000,0
1507857703.181,837.295,805.903,596.442,847.987,0.000,0.000,0
1507857703.183,836.884,822.216,731.057,821.531,0.000,0.000,0
1507857703.185,835.033,857.035,1480.208,823.792,0.000,0.000,0
1507857703.187,843.532,846.685,998.572,841.339,0.000,0.000,0
1507857703.189,847.919,799.049,355.658,847.576,0.000,0.000,0
1507857703.191,833.457,826.397,849.838,819.611,0.000,0.000,0
1507857703.193,819.269,814.265,727.287,818.652,0.000,0.000,0
1507857703.195,810.427,880.613,1627.228,804.053,0.000,0.000,0
1507857703.197,825.849,853.882,845.246,817.487,0.000,0.000,0
1507857703.199,834.759,789.659,52.365,842.984,0.000,0.000,0
1507857703.201,838.940,801.037,436.057,847.782,0.000,0.000,0
1507857703.203,835.856,830.989,831.538,859.022,0.000,0.000,0
1507857703.205,831.880,830.030,773.483,869.167,0.000,0.000,0
1507857703.207,832.703,821.256,685.820,876.226,0.000,0.000,0
1507857703.209,834.005,819.817,678.212,880.956,0.000,0.000,0
1507857703.211,830.578,797.815,338.660,871.223,0.000,0.000,0
1507857703.213,824.821,840.585,1035.652,842.230,0.000,0.000,0
1507857703.215,840.722,809.467,667.451,837.912,0.000,0.000,0
1507857703.217,840.242,830.852,894.252,810.633,0.000,0.000,0
1507857703.219,841.202,865.397,1502.621,804.327,0.000,0.000,0
1507857703.221,849.632,843.601,901.586,816.596,0.000,0.000,0
1507857703.223,854.773,796.376,379.168,838.734,0.000,0.000,0
1507857703.225,838.666,819.817,747.164,824.889,0.000,0.000,0
1507857703.227,814.814,812.620,875.609,810.975,0.000,0.000,0
1507857703.229,814.677,876.637,1621.539,805.561,0.000,0.000,0
1507857703.231,841.133,837.638,622.899,831.058,0.000,0.000,0
1507857703.233,842.367,782.462,93.558,841.613,0.000,0.000,0
1507857703.235,843.875,808.919,565.462,850.592,0.000,0.000,0
1507857703.237,846.891,830.509,784.176,863.957,0.000,0.000,0
1507857703.239,848.810,834.553,791.510,870.469,0.000,0.000,0
1507857703.241,851.003,831.058,745.039,873.073,0.000,0.000,0
1507857703.243,846.205,828.111,674.716,866.219,0.000,0.000,0
1507857703.245,833.320,803.299,351.957,866.905,0.000,0.000,0
1507857703.247,825.095,812.003,614.948,859.776,0.000,0.000,0
1507857703.249,823.176,834.211,805.492,805.835,0.000,0.000,0
1507857703.251,825.917,845.177,1254.229,793.086,0.000,0.000,0
1507857703.253,845.314,857.309,1124.413,826.397,0.000,0.000,0
1507857703.255,853.882,815.979,436.400,843.532,0.000,0.000,0
1507857703.257,824.204,830.578,1027.496,805.835,0.000,0.000,0
1507857703.259,825.369,799.872,482.048,813.511,0.000,0.000,0
1507857703.261,823.587,843.052,1130.101,813.237,0.000,0.000,0
1507857703.263,826.123,869.167,1424.484,813.717,0.000,0.000,0
1507857703.265,841.065,840.242,599.458,836.815,0.000,0.000,0
1507857703.267,842.093,790.139,149.967,848.741,0.000,0.000,0
1507857703.269,837.226,813.306,570.808,847.028,0.000,0.000,0
1507857703.271,835.513,831.949,761.489,851.826,0.000,0.000,0
1507857703.273,841.545,837.980,786.095,866.562,0.000,0.000,0
1507857703.275,840.037,839.625,806.726,866.288,0.000,0.000,0
1507857703.277,830.578,826.054,558.334,869.304,0.000,0.000,0
1507857703.279,833.799,800.831,758.199,867.864,0.000,0.000,0
1507857703.281,843.943,822.901,623.927,852.168,0.000,0.000,0
1507857703.283,843.943,865.260,1447.240,850.112,0.000,0.000,0
1507857703.285,840.379,848.193,926.878,861.147,0.000,0.000,0
1507857703.287,834.553,820.434,597.539,868.961,0.000,0.000,0
1507857703.289,839.831,819.749,595.414,863.615,0.000,0.000,0
1507857703.291,845.177,812.346,733.935,851.072,0.000,0.000,0
1507857703.293,846.822,828.522,460.937,843.806,0.000,0.000,0
1507857703.295,836.061,837.021,1156.010,825.849,0.000,0.000,0
1507857703.297,846.342,877.391,1349.912,832.497,0.000,0.000,0
1507857703.299,857.994,806.315,132.284,852.237,0.000,0.000,0
1507857703.301,850.729,804.738,427.421,855.595,0.000,0.000,0
1507857703.303,845.520,829.961,711.728,861.764,0.000,0.000,0
1507857703.305,846.548,835.239,755.046,866.219,0.000,0.000,0
1507857703.307,842.436,833.525,744.833,866.425,0.000,0.000,0
1507857703.309,843.806,807.068,301.511,875.198,0.000,0.000,0
1507857703.311,833.183,831.195,937.228,833.183,0.000,0.000,0
1507857703.313,833.114,822.010,718.514,815.430,0.000,0.000,0
1507857703.315,830.921,857.994,1146.551,820.023,0.000,0.000,0
1507857703.317,837.089,836.061,736.334,836.130,0.000,0.000,0
1507857703.319,844.766,826.877,682.598,840.516,0.000,0.000,0
1507857703.321,851.414,831.606,773.346,841.613,0.000,0.000,0
1507857703.323,847.508,834.759,763.888,852.717,0.000,0.000,0
1507857703.325,842.436,804.395,619.883,858.063,0.000,0.000,0
1507857703.327,831.058,827.288,555.386,841.065,0.000,0.000,0
1507857703.329,827.631,858.885,1412.010,812.620,0.000,0.000,0
1507857703.331,843.464,879.379,1234.146,822.216,0.000,0.000,0
1507857703.333,855.801,802.682,83.551,851.757,0.000,0.000,0
1507857703.335,848.262,809.947,451.067,858.474,0.000,0.000,0
1507857703.337,838.529,836.130,700.282,857.172,0.000,0.000,0
1507857703.339,841.270,841.682,763.202,860.599,0.000,0.000,0
1507857703.341,849.016,813.306,505.489,856.075,0.000,0.000,0
1507857703.343,838.255,837.089,658.746,818.309,0.000,0.000,0
1507857703.345,828.522,848.056,1236.614,808.645,0.000,0.000,0
1507857703.347,832.429,890.620,1516.192,823.930,0.000,0.000,0
1507857703.349,838.940,814.882,109.460,853.950,0.000,0.000,0
1507857703.351,833.114,799.598,253.327,844.218,0.000,0.000,0
1507857703.353,834.142,827.288,681.570,839.762,0.000,0.000,0
1507857703.355,834.622,839.625,798.501,843.121,0.000,0.000,0
1507857703.357,839.557,840.516,800.214,853.471,0.000,0.000,0
1507857703.359,851.894,818.035,388.969,878.899,0.000,0.000,0
1507857703.361,838.117,837.364,944.698,853.676,0.000,0.000,0
1507857703.363,838.186,822.764,636.265,842.984,0.000,0.000,0
1507857703.365,838.871,864.985,1117.421,839.146,0.000,0.000,0
1507857703.367,831.949,844.834,716.526,853.882,0.000,0.000,0
1507857703.369,826.808,828.042,547.778,862.655,0.000,0.000,0
1507857703.371,836.747,830.509,710.837,851.277,0.000,0.000,0
1507857703.373,849.427,841.545,864.574,862.312,0.000,0.000,0
1507857703.375,852.785,812.620,576.566,871.977,0.000,0.000,0
1507857703.377,845.794,834.279,679.857,847.439,0.000,0.000,0
1507857703.379,843.806,862.587,1199.328,839.694,0.000,0.000,0
1507857703.381,859.502,801.654,4.798,860.462,0.000,0.000,0
1507857703.383,845.931,798.021,218.645,844.081,0.000,0.000,0
1507857703.385,828.248,871.565,1475.342,816.801,0.000,0.000,0
1507857703.387,841.202,889.318,1303.099,839.968,0.000,0.000,0
1507857703.389,846.411,847.370,726.122,857.720,0.000,0.000,0
1507857703.391,853.813,826.328,486.229,864.026,0.000,0.000,0
1507857703.393,848.536,814.128,809.947,847.987,0.000,0.000,0
1507857703.395,845.931,822.216,512.137,834.622,0.000,0.000,0
1507857703.397,843.875,871.840,1498.714,821.325,0.000,0.000,0
1507857703.399,856.966,841.956,535.578,844.834,0.000,0.000,0
1507857703.401,854.499,813.100,419.264,846.479,0.000,0.000,0
1507857703.403,851.757,831.400,670.604,851.277,0.000,0.000,0
1507857703.405,851.346,843.464,744.354,859.160,0.000,0.000,0
1507857703.407,861.901,820.845,394.453,879.927,0.000,0.000,0
1507857703.409,846.959,846.479,794.114,862.107,0.000,0.000,0
1507857703.411,839.694,841.202,976.501,834.759,0.000,0.000,0
1507857703.413,844.972,878.831,1150.458,822.216,0.000,0.000,0
1507857703.415,852.511,844.423,641.954,839.557,0.000,0.000,0
1507857703.417,862.312,824.615,507.751,854.567,0.000,0.000,0
1507857703.419,854.362,838.323,732.839,862.038,0.000,0.000,0
1507857703.421,837.638,837.432,655.936,873.279,0.000,0.000,0
1507857703.423,839.420,832.497,637.430,870.057,0.000,0.000,0
1507857703.425,838.323,837.089,701.241,852.443,0.000,0.000,0
1507857703.427,840.791,812.209,384.034,853.128,0.000,0.000,0
1507857703.429,832.703,844.629,866.768,821.873,0.000,0.000,0
1507857703.431,828.316,833.320,826.808,817.213,0.000,0.000,0
1507857703.433,838.255,859.913,1018.997,817.898,0.000,0.000,0
1507857703.435,838.323,840.654,746.341,831.058,0.000,0.000,0
1507857703.437,838.323,833.045,688.219,841.750,0.000,0.000,0
1507857703.439,850.044,822.079,432.630,859.913,0.000,0.000,0
1507857703.441,840.311,844.423,1032.568,830.647,0.000,0.000,0
1507857703.443,848.056,815.019,507.476,840.654,0.000,0.000,0
1507857703.445,838.323,879.585,1573.698,828.590,0.000,0.000,0
1507857703.447,846.822,861.147,855.458,857.652,0.000,0.000,0
1507857703.449,850.592,802.065,39.685,865.534,0.000,0.000,0
1507857703.451,847.028,812.141,399.662,848.056,0.000,0.000,0
1507857703.453,848.604,846.891,766.629,859.913,0.000,0.000,0
1507857703.455,847.439,852.854,805.218,857.926,0.000,0.000,0
1507857703.457,843.943,843.806,718.514,851.689,0.000,0.000,0
1507857703.459,836.198,834.485,651.070,858.406,0.000,0.000,0
1507857703.461,848.056,807.411,435.988,871.908,0.000,0.000,0
1507857703.463,842.230,843.190,725.025,827.631,0.000,0.000,0
1507857703.465,840.379,847.439,1058.065,817.350,0.000,0.000,0
1507857703.467,836.404,860.051,988.565,834.828,0.000,0.000,0
1507857703.469,845.794,837.089,707.479,837.089,0.000,0.000,0
1507857703.471,844.423,832.360,700.145,839.146,0.000,0.000,0
1507857703.473,859.297,818.309,412.547,857.583,0.000,0.000,0
1507857703.475,845.451,832.360,900.147,830.647,0.000,0.000,0
1507857703.477,833.045,840.174,1038.394,828.316,0.000,0.000,0
1507857703.479,834.211,890.071,1630.381,832.497,0.000,0.000,0
1507857703.481,855.527,846.274,516.935,849.701,0.000,0.000,0
1507857703.483,841.956,797.953,91.982,858.131,0.000,0.000,0
1507857703.485,828.316,819.132,471.492,849.016,0.000,0.000,0
1507857703.487,831.743,839.351,709.603,849.564,0.000,0.000,0
1507857703.489,836.404,846.205,825.437,861.421,0.000,0.000,0
1507857703.491,834.348,840.928,787.055,867.247,0.000,0.000,0
1507857703.493,848.810,820.708,452.233,875.472,0.000,0.000,0
1507857703.495,825.643,819.474,878.694,841.682,0.000,0.000,0
1507857703.497,824.341,831.606,958.612,843.395,0.000,0.000,0
1507857703.499,832.154,864.985,1297.204,842.093,0.000,0.000,0
1507857703.501,842.436,837.569,809.536,845.246,0.000,0.000,0
1507857703.503,837.569,823.792,648.122,841.202,0.000,0.000,0
1507857703.505,846.068,823.450,564.845,848.947,0.000,0.000,0
1507857703.507,845.109,817.555,857.035,849.906,0.000,0.000,0
1507857703.509,838.597,831.538,632.289,849.290,0.000,0.000,0
1507857703.511,830.852,881.093,1559.099,830.921,0.000,0.000,0
1507857703.513,852.374,894.390,1354.847,824.135,0.000,0.000,0
1507857703.515,863.683,817.487,67.993,836.404,0.000,0.000,0
1507857703.517,843.121,806.040,260.387,839.557,0.000,0.000,0
1507857703.519,837.843,829.961,579.924,854.430,0.000,0.000,0
1507857703.521,845.314,843.669,774.786,867.659,0.000,0.000,0
1507857703.523,847.096,846.205,768.549,879.927,0.000,0.000,0
1507857703.525,842.093,840.242,732.496,884.657,0.000,0.000,0
1507857703.527,852.168,815.568,334.068,886.165,0.000,0.000,0
1507857703.529,843.738,838.460,963.753,829.276,0.000,0.000,0
1507857703.531,835.170,849.358,1095.283,827.425,0.000,0.000,0
1507857703.533,832.429,866.356,1043.534,842.230,0.000,0.000,0
1507857703.535,839.831,841.613,682.804,844.149,0.000,0.000,0
1507857703.537,845.246,835.444,661.488,846.685,0.000,0.000,0
1507857703.539,849.427,812.346,594.044,868.001,0.000,0.000,0
1507857703.541,841.750,829.139,541.199,849.906,0.000,0.000,0
1507857703.543,825.163,851.277,1300.768,810.290,0.000,0.000,0
1507857703.545,844.218,892.676,1584.939,814.539,0.000,0.000,0
1507857703.547,858.406,849.564,628.862,840.379,0.000,0.000,0
1507857703.549,849.427,800.352,21.385,852.511,0.000,0.000,0
1507857703.551,832.497,815.910,392.396,856.075,0.000,0.000,0
1507857703.553,830.784,836.747,673.414,854.773,0.000,0.000,0
1507857703.555,839.420,840.722,778.487,851.757,0.000,0.000,0
1507857703.557,843.806,840.105,803.916,853.196,0.000,0.000,0
1507857703.559,844.355,840.516,753.127,864.437,0.000,0.000,0
1507857703.561,863.066,817.007,369.572,877.254,0.000,0.000,0
1507857703.563,841.956,849.358,849.358,830.030,0.000,0.000,0
1507857703.565,829.618,836.678,795.622,819.200,0.000,0.000,0
1507857703.567,830.372,860.805,980.477,833.114,0.000,0.000,0
1507857703.569,837.638,844.012,719.885,836.952,0.000,0.000,0
1507857703.571,840.516,835.102,660.665,829.755,0.000,0.000,0
1507857703.573,839.077,814.060,605.010,839.968,0.000,0.000,0
1507857703.575,830.647,823.450,503.433,828.179,0.000,0.000,0
1507857703.577,821.805,870.606,1487.131,815.499,0.000,0.000,0
1507857703.579,831.469,898.982,1530.723,836.815,0.000,0.000,0
1507857703.581,842.024,831.469,282.183,870.332,0.000,0.000,0
1507857703.583,839.146,797.678,128.583,872.114,0.000,0.000,0
1507857703.585,842.778,824.752,608.232,866.768,0.000,0.000,0
1507857703.587,841.065,842.847,803.436,875.952,0.000,0.000,0
1507857703.589,836.610,838.803,743.257,878.419,0.000,0.000,0
1507857703.591,845.451,837.432,771.839,864.300,0.000,0.000,0
1507857703.593,861.558,826.328,475.536,874.718,0.000,0.000,0
1507857703.595,834.759,834.759,941.409,816.870,0.000,0.000,0
1507857703.597,833.320,819.817,514.810,804.121,0.000,0.000,0
1507857703.599,827.494,855.116,1073.898,806.657,0.000,0.000,0
1507857703.601,831.263,843.052,789.728,822.216,0.000,0.000,0
1507857703.603,820.228,832.292,659.637,831.469,0.000,0.000,0
1507857703.605,829.961,834.416,664.709,836.541,0.000,0.000,0
1507857703.607,845.588,820.503,378.962,847.782,0.000,0.000,0
1507857703.609,833.799,846.754,1005.837,813.443,0.000,0.000,0
1507857703.611,840.174,821.805,644.010,815.362,0.000,0.000,0
1507857703.613,836.130,880.750,1620.306,814.128,0.000,0.000,0
1507857703.615,841.750,837.501,400.964,840.516,0.000,0.000,0
1507857703.617,835.581,799.735,164.704,852.305,0.000,0.000,0
1507857703.619,840.791,831.263,645.997,861.216,0.000,0.000,0
1507857703.621,845.794,851.140,829.344,855.664,0.000,0.000,0
1507857703.623,844.149,847.919,777.939,855.184,0.000,0.000,0
1507857703.625,840.791,842.230,670.124,846.000,0.000,0.000,0
1507857703.627,840.037,812.552,652.440,844.972,0.000,0.000,0
1507857703.629,834.211,832.429,728.932,841.133,0.000,0.000,0
1507857703.631,831.469,873.142,1452.929,833.799,0.000,0.000,0
1507857703.633,826.260,849.153,834.622,832.566,0.000,0.000,0
1507857703.635,829.413,828.727,620.706,839.557,0.000,0.000,0
1507857703.637,843.532,831.743,700.213,844.081,0.000,0.000,0
1507857703.639,863.066,811.592,541.747,859.776,0.000,0.000,0
1507857703.641,849.358,832.566,655.867,839.968,0.000,0.000,0
1507857703.643,834.074,848.673,1227.704,824.752,0.000,0.000,0
1507857703.645,838.117,896.309,1579.250,824.067,0.000,0.000,0
1507857703.647,853.608,846.479,531.671,855.458,0.000,0.000,0
1507857703.649,858.063,795.691,64.703,874.033,0.000,0.000,0
1507857703.651,853.676,819.200,483.487,858.885,0.000,0.000,0
1507857703.653,850.523,846.068,755.320,844.081,0.000,0.000,0
1507857703.655,839.283,849.632,728.247,846.891,0.000,0.000,0
1507857703.657,837.432,845.588,703.161,857.994,0.000,0.000,0
1507857703.659,845.109,845.383,740.515,878.214,0.000,0.000,0
1507857703.661,861.764,821.051,332.834,885.274,0.000,0.000,0
1507857703.663,837.980,849.221,980.957,810.290,0.000,0.000,0
1507857703.665,834.553,831.126,706.656,810.838,0.000,0.000,0
1507857703.667,844.218,860.188,1068.483,833.936,0.000,0.000,0
1507857703.669,858.337,846.205,815.362,857.857,0.000,0.000,0
1507857703.670,869.509,817.418,431.122,870.537,0.000,0.000,0
1507857703.672,861.216,838.871,873.553,848.878,0.000,0.000,0
1507857703.674,844.834,832.292,830.098,847.439,0.000,0.000,0
1507857703.676,837.089,890.071,1537.440,842.024,0.000,0.000,0
1507857703.678,857.309,830.509,355.521,850.523,0.000,0.000,0
1507857703.680,837.775,836.130,692.879,845.726,0.000,0.000,0
1507857703.682,830.989,809.742,206.856,849.906,0.000,0.000,0
1507857703.684,832.360,827.836,589.040,860.256,0.000,0.000,0
1507857703.686,836.747,846.342,832.703,860.805,0.000,0.000,0
1507857703.688,835.787,846.959,810.427,859.502,0.000,0.000,0
1507857703.690,838.597,838.734,710.289,859.022,0.000,0.000,0
1507857703.692,847.165,813.511,369.435,866.014,0.000,0.000,0
1507857703.694,836.130,854.362,1078.353,852.443,0.000,0.000,0
1507857703.696,845.383,826.671,719.953,850.318,0.000,0.000,0
1507857703.698,841.956,842.024,663.955,830.235,0.000,0.000,0
1507857703.700,833.457,870.606,1347.102,830.578,0.000,0.000,0
1507857703.702,842.573,855.870,916.185,836.473,0.000,0.000,0
1507857703.704,853.334,811.592,384.925,843.327,0.000,0.000,0
1507857703.706,842.710,835.650,804.875,822.627,0.000,0.000,0
1507857703.708,840.928,852.100,1126.400,804.464,0.000,0.000,0
1507857703.710,850.181,839.283,972.937,803.504,0.000,0.000,0
1507857703.712,855.321,827.836,765.327,814.265,0.000,0.000,0
1507857703.714,855.664,821.051,348.736,828.453,0.000,0.000,0
1507857703.716,842.847,835.787,1034.076,822.901,0.000,0.000,0
1507857703.718,845.931,848.947,911.319,834.828,0.000,0.000,0
1507857703.720,854.773,834.074,715.224,856.966,0.000,0.000,0
1507857703.722,850.660,830.098,694.730,858.337,0.000,0.000,0
1507857703.724,842.161,831.195,658.678,858.200,0.000,0.000,0
1507857703.726,850.112,816.253,335.713,873.142,0.000,0.000,0
1507857703.728,840.174,821.736,956.693,846.959,0.000,0.000,0
1507857703.730,839.762,821.599,820.777,839.283,0.000,0.000,0
1507857703.732,835.376,837.089,891.785,818.309,0.000,0.000,0
1507857703.734,837.021,865.808,1408.720,818.995,0.000,0.000,0
1507857703.736,834.965,842.710,874.513,838.734,0.000,0.000,0
1507857703.738,848.193,800.146,413.164,856.898,0.000,0.000,0
1507857703.740,843.806,828.522,689.795,838.255,0.000,0.000,0
1507857703.742,834.485,835.856,1083.905,824.958,0.000,0.000,0
1507857703.744,833.045,889.318,1586.858,828.316,0.000,0.000,0
1507857703.746,841.133,842.024,518.169,859.228,0.000,0.000,0
1507857703.748,837.980,791.921,39.480,861.079,0.000,0.000,0
1507857703.750,833.594,813.100,483.556,859.228,0.000,0.000,0
1507857703.752,844.012,837.775,795.211,857.720,0.000,0.000,0
1507857703.754,839.762,843.532,836.884,852.374,0.000,0.000,0
1507857703.756,832.840,833.936,720.296,853.608,0.000,0.000,0
1507857703.758,843.121,829.139,728.041,866.768,0.000,0.000,0
1507857703.760,856.624,806.931,336.947,886.781,0.000,0.000,0
1507857703.762,840.105,830.098,946.686,849.838,0.000,0.000,0
1507857703.764,841.270,822.422,700.213,842.573,0.000,0.000,0
1507857703.766,843.669,859.776,1133.529,842.915,0.000,0.000,0
1507857703.768,849.564,841.476,813.443,844.492,0.000,0.000,0
1507857703.770,848.399,825.575,585.202,837.912,0.000,0.000,0
1507857703.772,838.049,809.536,692.331,839.214,0.000,0.000,0
1507857703.774,837.638,827.151,490.204,839.968,0.000,0.000,0
1507857703.776,831.949,834.211,1132.843,829.550,0.000,0.000,0
1507857703.778,844.697,856.898,947.303,848.330,0.000,0.000,0
1507857703.780,845.657,821.051,608.574,862.312,0.000,0.000,0
1507857703.782,839.009,805.149,380.950,867.179,0.000,0.000,0
1507857703.784,826.466,817.213,613.578,872.388,0.000,0.000,0
1507857703.786,835.170,825.986,727.972,866.151,0.000,0.000,0
1507857703.788,835.581,826.466,733.181,864.094,0.000,0.000,0
1507857703.790,827.357,827.082,709.535,863.615,0.000,0.000,0
1507857703.792,834.348,797.267,447.160,864.437,0.000,0.000,0
1507857703.794,820.777,828.248,702.886,827.082,0.000,0.000,0
1507857703.796,828.590,842.710,1251.145,826.945,0.000,0.000,0
1507857703.798,841.750,853.334,1116.325,840.585,0.000,0.000,0
1507857703.800,846.342,827.357,745.519,859.845,0.000,0.000,0
1507857703.802,846.068,821.393,681.090,853.196,0.000,0.000,0
1507857703.804,835.787,824.135,666.148,843.121,0.000,0.000,0
1507857703.806,831.880,802.065,588.286,841.956,0.000,0.000,0
1507857703.808,832.223,819.611,539.759,829.070,0.000,0.000,0
1507857703.810,821.805,856.144,1435.245,811.181,0.000,0.000,0
1507857703.812,834.828,890.825,1517.152,816.116,0.000,0.000,0
1507857703.814,851.826,816.527,136.122,839.351,0.000,0.000,0
1507857703.816,843.943,795.211,218.645,845.520,0.000,0.000,0
1507857703.818,838.597,825.026,674.510,843.532,0.000,0.000,0
1507857703.820,829.550,836.815,777.802,840.791,0.000,0.000,0
1507857703.822,829.687,834.211,742.777,852.237,0.000,0.000,0
1507857703.824,830.921,827.219,651.823,857.583,0.000,0.000,0
1507857703.826,834.142,806.452,684.106,846.891,0.000,0.000,0
1507857703.828,830.304,826.123,482.596,819.337,0.000,0.000,0
1507857703.830,815.293,835.581,1071.431,805.698,0.000,0.000,0
1507857703.832,823.861,841.270,912.210,821.942,0.000,0.000,1
1507857703.834,837.980,825.163,704.052,829.550,0.000,0.000,0
1507857703.836,842.298,826.671,754.086,838.460,0.000,0.000,0
1507857703.838,844.834,809.262,441.540,851.003,0.000,0.000,0
1507857703.840,833.936,834.896,803.093,826.191,0.000,0.000,0
1507857703.842,830.372,845.863,1245.387,809.673,0.000,0.000,0
1507857703.844,832.223,889.043,1525.377,811.661,0.000,0.000,0
1507857703.846,839.214,837.706,522.555,834.896,0.000,0.000,0
1507857703.848,839.146,792.127,50.789,836.884,0.000,0.000,0
1507857703.850,828.316,807.617,435.029,833.320,0.000,0.000,0
1507857703.852,825.643,828.659,695.347,833.594,0.000,0.000,0
1507857703.854,835.102,840.037,826.877,840.379,0.000,0.000,0
1507857703.856,838.666,837.980,783.079,847.919,0.000,0.000,0
1507857703.858,838.529,832.634,720.090,844.766,0.000,0.000,0
1507857703.860,835.856,831.538,755.937,848.467,0.000,0.000,0
1507857703.862,843.190,796.924,212.751,862.998,0.000,0.000,0
1507857703.864,821.736,809.536,996.652,817.281,0.000,0.000,0
1507857703.866,824.889,829.824,812.963,803.162,0.000,0.000,0
1507857703.868,816.664,859.022,1306.663,804.601,0.000,0.000,0
1507857703.870,829.070,826.740,555.798,833.731,0.000,0.000,0
1507857703.872,828.248,819.406,804.875,811.524,0.000,0.000,0
1507857703.874,826.740,817.898,745.108,798.912,0.000,0.000,0
1507857703.876,811.661,876.569,1620.031,792.606,0.000,0.000,0
1507857703.878,823.792,856.075,986.371,808.713,0.000,0.000,0
1507857703.880,831.743,795.348,191.572,821.393,0.000,0.000,0
1507857703.882,831.058,787.260,220.633,820.571,0.000,0.000,0
1507857703.884,831.743,818.309,683.352,832.086,0.000,0.000,0
1507857703.886,838.323,832.566,831.880,842.093,0.000,0.000,0
1507857703.888,830.509,829.755,758.610,846.068,0.000,0.000,0
1507857703.890,826.808,819.954,663.407,855.047,0.000,0.000,0
1507857703.892,841.750,801.859,315.494,866.014,0.000,0.000,0
1507857703.894,838.871,841.270,1130.718,857.240,0.000,0.000,0
1507857703.896,839.557,850.386,966.563,858.611,0.000,0.000,0
1507857703.898,834.553,829.481,685.614,837.775,0.000,0.000,0
1507857703.900,824.889,819.337,610.082,845.177,0.000,0.000,0
1507857703.902,824.478,821.599,554.427,843.669,0.000,0.000,0
1507857703.904,836.610,805.835,689.932,839.146,0.000,0.000,0
1507857703.906,834.211,838.323,883.286,808.988,0.000,0.000,0
1507857703.908,833.731,844.149,929.003,808.371,0.000,0.000,0
1507857703.910,832.497,850.935,875.678,801.242,0.000,0.000,0
1507857703.912,836.404,824.546,716.732,796.170,0.000,0.000,0
1507857703.914,841.819,857.240,1028.798,812.963,0.000,0.000,0
1507857703.916,842.710,844.972,762.585,828.453,0.000,0.000,0
1507857703.918,840.037,834.690,624.201,843.601,0.000,0.000,0
1507857703.920,842.573,836.473,671.495,854.773,0.000,0.000,0
1507857703.922,850.044,840.791,767.383,853.950,0.000,0.000,0
1507857703.924,858.063,845.931,850.592,855.184,0.000,0.000,0
1507857703.926,863.135,809.467,479.786,863.615,0.000,0.000,0
1507857703.928,846.137,832.634,674.031,830.372,0.000,0.000,0
1507857703.930,834.074,847.028,1203.646,831.743,0.000,0.000,0
1507857703.932,827.699,847.850,930.579,853.745,0.000,0.000,0
1507857703.934,829.276,822.353,626.326,867.384,0.000,0.000,0
1507857703.936,829.824,821.805,653.606,865.465,0.000,0.000,0
1507857703.938,838.734,806.520,418.647,872.045,0.000,0.000,0
1507857703.940,831.538,848.399,920.367,840.379,0.000,0.000,0
1507857703.942,832.429,827.151,716.869,829.687,0.000,0.000,0
1507857703.944,833.731,877.391,1492.408,826.603,0.000,0.000,0
1507857703.946,861.421,869.578,944.493,841.065,0.000,0.000,0
1507857703.948,861.353,797.815,71.899,852.100,0.000,0.000,0
1507857703.950,847.302,811.044,473.891,849.290,0.000,0.000,0
1507857703.952,841.133,832.634,684.380,848.741,0.000,0.000,0
1507857703.954,843.806,840.516,784.313,848.124,0.000,0.000,0
1507857703.956,844.629,845.451,838.049,854.773,0.000,0.000,0
1507857703.958,845.520,839.077,688.561,871.291,0.000,0.000,0
1507857703.960,850.455,813.991,667.314,861.216,0.000,0.000,0
1507857703.962,849.358,831.538,457.853,825.026,0.000,0.000,0
1507857703.964,838.117,845.931,1069.237,823.176,0.000,0.000,0
1507857703.966,848.193,858.200,954.363,848.262,0.000,0.000,0
1507857703.968,846.617,838.871,684.038,848.467,0.000,0.000,0
1507857703.970,849.427,818.926,400.553,851.826,0.000,0.000,0
1507857703.972,838.460,835.102,983.767,837.226,0.000,0.000,0
1507857703.974,855.253,797.678,149.762,850.318,0.000,0.000,0
1507857703.976,851.072,838.323,1065.193,842.710,0.000,0.000,0
1507857703.978,853.128,840.722,874.992,833.594,0.000,0.000,0
1507857703.980,854.841,831.538,569.300,837.364,0.000,0.000,0
1507857703.982,843.738,859.571,1204.468,839.625,0.000,0.000,0
1507857703.984,841.682,833.183,504.049,859.708,0.000,0.000,0
1507857703.986,833.045,822.490,792.058,844.492,0.000,0.000,0
1507857703.988,844.629,851.689,959.161,848.604,0.000,0.000,0
1507857703.990,841.682,812.552,344.349,856.898,0.000,0.000,0
1507857703.992,829.207,844.423,969.305,841.956,0.000,0.000,0
1507857703.994,841.613,800.831,115.217,854.567,0.000,0.000,0
1507857703.996,827.288,848.947,1349.227,831.195,0.000,0.000,0
1507857703.998,842.573,873.347,1263.482,843.943,0.000,0.000,0
1507857704.000,840.105,837.089,710.152,847.028,0.000,0.000,0
1507857704.002,852.100,827.973,677.869,851.209,0.000,0.000,0
1507857704.004,871.086,817.007,417.414,874.033,0.000,0.000,0
1507857704.006,852.031,822.010,910.428,827.836,0.000,0.000,0
1507857704.008,840.722,810.496,442.500,811.455,0.000,0.000,0
1507857704.010,817.692,854.773,994.528,797.199,0.000,0.000,0
1507857704.012,827.151,816.253,566.833,811.935,0.000,0.000,0
1507857704.014,847.645,817.281,277.865,827.905,0.000,0.000,0
1507857704.016,837.501,849.084,1106.318,822.353,0.000,0.000,0
1507857704.018,841.407,844.972,832.360,823.107,0.000,0.000,0
1507857704.020,838.049,831.606,578.622,828.933,0.000,0.000,0
1507857704.022,832.292,855.321,1143.673,834.965,0.000,0.000,0
1507857704.024,845.657,832.703,558.471,864.506,0.000,0.000,0
1507857704.026,843.190,820.845,816.801,853.676,0.000,0.000,0
1507857704.028,863.752,826.740,566.901,869.167,0.000,0.000,0
1507857704.030,842.984,825.780,924.273,823.587,0.000,0.000,0
1507857704.032,834.279,837.021,1104.125,818.104,0.000,0.000,0
1507857704.034,839.488,859.502,1198.779,832.223,0.000,0.000,0
1507857704.036,834.553,830.715,699.734,836.541,0.000,0.000,0
1507857704.038,842.230,802.339,295.822,854.979,0.000,0.000,0
1507857704.040,824.683,833.320,908.235,835.444,0.000,0.000,0
1507857704.042,822.901,818.104,687.053,851.620,0.000,0.000,0
1507857704.044,828.727,867.384,1260.261,858.131,0.000,0.000,0
1507857704.046,841.682,847.713,907.549,862.175,0.000,0.000,0
1507857704.048,846.685,813.306,332.080,856.349,0.000,0.000,0
1507857704.050,837.638,820.228,559.910,857.720,0.000,0.000,0
1507857704.052,839.831,834.142,726.533,866.151,0.000,0.000,0
1507857704.054,846.959,838.255,818.241,863.957,0.000,0.000,0
1507857704.056,846.891,836.815,796.787,871.771,0.000,0.000,0
1507857704.058,846.617,833.251,692.125,889.455,0.000,0.000,0
1507857704.060,841.887,806.452,577.594,882.669,0.000,0.000,0
1507857704.062,837.432,827.973,524.200,846.685,0.000,0.000,0
1507857704.064,831.880,837.569,1053.130,833.799,0.000,0.000,0
1507857704.066,829.893,847.987,948.674,842.573,0.000,0.000,0
1507857704.068,837.158,829.002,685.683,847.850,0.000,0.000,0
1507857704.070,849.221,807.617,559.842,857.994,0.000,0.000,0
1507857704.072,854.019,829.824,562.926,851.483,0.000,0.000,0
1507857704.074,839.420,859.502,1448.062,842.161,0.000,0.000,0
1507857704.076,849.290,889.249,1519.619,854.910,0.000,0.000,0
1507857704.078,852.717,835.170,604.325,870.400,0.000,0.000,0
1507857704.080,860.325,801.996,164.087,891.100,0.000,0.000,0
1507857704.082,854.430,797.062,285.747,883.560,0.000,0.000,0
1507857704.084,853.608,830.235,717.623,876.569,0.000,0.000,0
1507857704.086,851.826,844.218,837.843,873.073,0.000,0.000,0
1507857704.088,849.495,839.283,745.587,875.746,0.000,0.000,0
1507857704.090,853.882,838.049,748.398,866.425,0.000,0.000,0
1507857704.092,862.312,811.592,325.226,878.831,0.000,0.000,0
1507857704.094,842.710,838.186,870.400,842.847,0.000,0.000,0
1507857704.096,834.142,838.871,920.229,835.787,0.000,0.000,0
1507857704.098,828.933,865.123,1093.089,843.190,0.000,0.000,0
1507857704.100,825.917,836.884,666.080,853.128,0.000,0.000,0
1507857704.102,832.771,827.768,628.520,861.216,0.000,0.000,0
1507857704.104,839.077,834.965,756.554,861.421,0.000,0.000,0
1507857704.106,855.184,812.757,449.971,876.706,0.000,0.000,0
1507857704.108,853.676,839.146,752.784,848.947,0.000,0.000,0
1507857704.110,847.370,854.773,1276.916,839.694,0.000,0.000,0
1507857704.112,848.467,894.595,1471.778,848.947,0.000,0.000,0
1507857704.114,849.632,816.253,91.913,855.253,0.000,0.000,0
1507857704.116,837.912,803.641,274.369,853.196,0.000,0.000,0
1507857704.118,840.037,829.961,645.106,855.116,0.000,0.000,0
1507857704.120,844.218,843.875,823.930,848.673,0.000,0.000,0
1507857704.122,848.124,838.666,769.988,846.411,0.000,0.000,0
1507857704.124,844.286,808.439,563.680,850.523,0.000,0.000,0
1507857704.126,832.908,832.703,647.368,837.638,0.000,0.000,0
1507857704.128,826.740,864.506,1457.521,814.745,0.000,0.000,0
1507857704.130,845.040,860.805,812.894,830.784,0.000,0.000,0
1507857704.132,844.286,815.225,363.541,845.726,0.000,0.000,0
1507857704.134,854.704,832.154,683.078,862.244,0.000,0.000,0
1507857704.136,853.128,846.342,795.005,859.571,0.000,0.000,0
1507857704.138,837.295,842.298,645.312,859.639,0.000,0.000,0
1507857704.140,845.109,822.079,588.149,856.624,0.000,0.000,0
1507857704.142,853.608,849.358,566.353,838.597,0.000,0.000,0
1507857704.144,847.370,861.764,1194.050,836.130,0.000,0.000,0
1507857704.146,860.188,892.607,1146.072,849.290,0.000,0.000,0
1507857704.148,864.369,824.272,209.324,863.957,0.000,0.000,0
1507857704.150,857.035,832.223,511.520,865.534,0.000,0.000,0
1507857704.152,855.390,849.564,737.568,867.864,0.000,0.000,0
1507857704.154,852.443,853.471,764.025,873.690,0.000,0.000,0
1507857704.156,862.655,848.878,686.162,876.500,0.000,0.000,0
1507857704.158,857.309,830.372,847.302,866.014,0.000,0.000,0
1507857704.160,851.963,824.683,341.402,850.592,0.000,0.000,0
1507857704.162,840.859,858.063,1267.526,826.260,0.000,0.000,0
1507857704.164,848.673,852.991,703.161,841.065,0.000,0.000,0
1507857704.166,839.831,824.478,485.955,850.249,0.000,0.000,0
1507857704.168,843.327,830.441,650.247,863.203,0.000,0.000,0
1507857704.170,844.834,840.311,743.668,867.864,0.000,0.000,0
1507857704.172,842.915,837.364,747.849,863.066,0.000,0.000,0
1507857704.174,845.931,823.244,475.262,869.715,0.000,0.000,0
1507857704.176,827.151,827.905,946.412,836.815,0.000,0.000,0
1507857704.178,831.263,815.088,427.832,833.936,0.000,0.000,0
1507857704.180,836.335,859.228,1185.071,837.912,0.000,0.000,0
1507857704.182,843.806,850.318,866.219,844.355,0.000,0.000,0
1507857704.184,839.077,833.320,648.465,839.214,0.000,0.000,0
1507857704.186,843.190,834.005,689.932,847.028,0.000,0.000,0
1507857704.188,858.954,802.065,102.674,877.940,0.000,0.000,0
1507857704.190,841.956,787.329,59.905,874.992,0.000,0.000,0
1507857704.192,829.070,833.183,986.303,854.910,0.000,0.000,0
1507857704.194,842.298,884.520,1265.196,859.502,0.000,0.000,0
1507857704.196,829.961,824.615,755.663,851.209,0.000,0.000,0
1507857704.198,825.917,818.446,660.665,835.924,0.000,0.000,0
1507857704.200,836.815,860.599,1302.893,836.541,0.000,0.000,0
1507857704.202,847.165,842.298,865.123,846.274,0.000,0.000,0
1507857704.204,834.211,823.724,669.576,852.305,0.000,0.000,0
1507857704.206,836.541,795.828,337.495,874.924,0.000,0.000,0
1507857704.208,833.183,822.490,821.736,832.360,0.000,0.000,0
1507857704.210,829.139,846.000,1342.030,812.620,0.000,0.000,0
1507857704.212,835.033,882.532,1451.901,821.188,0.000,0.000,0
1507857704.214,852.031,806.040,108.911,848.604,0.000,0.000,0
1507857704.216,849.564,805.286,423.514,853.059,0.000,0.000,0
1507857704.218,833.936,826.191,676.155,865.739,0.000,0.000,0
1507857704.220,823.792,827.082,691.440,858.337,0.000,0.000,0
1507857704.222,826.877,825.437,742.709,851.826,0.000,0.000,0
1507857704.224,834.622,791.784,499.320,860.736,0.000,0.000,0
1507857704.226,828.179,815.636,610.014,829.276,0.000,0.000,0
1507857704.228,809.262,838.049,1332.160,806.863,0.000,0.000,0
1507857704.230,822.079,847.233,882.532,807.548,0.000,0.000,0
1507857704.232,826.877,811.524,500.691,821.668,0.000,0.000,0
1507857704.234,830.509,820.982,652.714,834.279,0.000,0.000,0
1507857704.236,823.176,827.699,708.918,840.105,0.000,0.000,0
1507857704.238,814.677,822.559,598.978,837.158,0.000,0.000,0
1507857704.240,816.390,796.650,510.218,845.109,0.000,0.000,0
1507857704.242,816.047,825.986,676.772,822.353,0.000,0.000,0
1507857704.244,811.935,821.051,1031.197,808.576,0.000,0.000,0
1507857704.246,818.995,859.365,1131.061,816.733,0.000,0.000,0
1507857704.248,826.260,802.613,286.706,830.030,0.000,0.000,0
1507857704.250,823.107,810.358,572.659,837.843,0.000,0.000,0
1507857704.252,816.938,827.562,733.250,846.411,0.000,0.000,0
1507857704.254,816.184,830.167,706.793,852.922,0.000,0.000,0
1507857704.256,827.219,807.068,405.145,862.312,0.000,0.000,0
1507857704.258,816.527,835.376,844.560,825.643,0.000,0.000,0
1507857704.260,806.315,816.390,726.807,824.683,0.000,0.000,0
1507857704.262,807.343,868.413,1410.022,822.353,0.000,0.000,0
1507857704.264,833.731,820.914,364.911,842.984,0.000,0.000,0
1507857704.266,842.230,816.321,605.490,849.427,0.000,0.000,0
1507857704.268,838.940,829.687,749.631,849.084,0.000,0.000,0
1507857704.270,838.323,833.799,764.916,864.026,0.000,0.000,0
1507857704.272,832.977,833.457,717.623,861.901,0.000,0.000,0
1507857704.274,829.344,801.380,518.512,835.924,0.000,0.000,0
1507857704.276,822.079,827.562,601.994,797.404,0.000,0.000,0
1507857704.278,822.833,844.286,1245.113,800.214,0.000,0.000,0
1507857704.280,847.987,863.683,957.721,835.239,0.000,0.000,0
1507857704.282,847.850,827.562,528.861,851.757,0.000,0.000,0
1507857704.283,844.081,829.344,614.057,855.458,0.000,0.000,0
1507857704.285,840.311,834.485,729.617,854.362,0.000,0.000,0
1507857704.287,844.903,834.416,716.183,859.708,0.000,0.000,0
1507857704.289,852.443,807.068,490.136,856.692,0.000,0.000,0
1507857704.291,833.114,836.198,784.313,809.673,0.000,0.000,0
1507857704.293,819.680,820.708,833.594,810.290,0.000,0.000,0
1507857704.295,828.590,864.369,1148.265,831.880,0.000,0.000,0
1507857704.297,840.722,816.664,384.857,850.112,0.000,0.000,0
1507857704.299,843.601,824.889,635.442,860.325,0.000,0.000,0
1507857704.301,840.996,836.473,731.194,867.453,0.000,0.000,0
1507857704.303,837.980,836.061,727.835,878.077,0.000,0.000,0
1507857704.305,843.601,815.019,396.852,888.152,0.000,0.000,0
1507857704.307,831.880,846.685,976.707,827.288,0.000,0.000,0
1507857704.309,830.989,824.204,673.688,813.648,0.000,0.000,0
1507857704.311,834.553,871.086,1326.471,817.624,0.000,0.000,0
1507857704.313,841.270,830.852,423.788,838.871,0.000,0.000,0
1507857704.315,839.214,816.047,492.329,852.648,0.000,0.000,0
1507857704.317,845.109,830.235,740.310,851.483,0.000,0.000,0
1507857704.319,842.573,833.594,825.917,857.652,0.000,0.000,0
1507857704.321,834.005,825.849,669.507,857.515,0.000,0.000,0
1507857704.323,836.747,800.420,559.156,861.901,0.000,0.000,0
1507857704.325,836.335,832.908,629.822,825.780,0.000,0.000,0
1507857704.327,829.002,838.871,1100.560,797.267,0.000,0.000,0
1507857704.329,833.936,855.664,918.242,811.044,0.000,0.000,0
1507857704.331,822.285,813.717,452.986,821.599,0.000,0.000,0
1507857704.333,818.172,814.745,583.899,828.796,0.000,0.000,0
1507857704.335,821.668,826.877,727.493,848.878,0.000,0.000,0
1507857704.337,828.659,832.908,754.977,868.961,0.000,0.000,0
1507857704.339,845.588,809.879,467.928,875.609,0.000,0.000,0
1507857704.341,839.557,838.323,825.026,846.137,0.000,0.000,0
1507857704.343,837.295,827.082,919.544,845.383,0.000,0.000,0
1507857704.345,839.009,866.768,1117.284,831.469,0.000,0.000,0
1507857704.347,849.016,815.979,352.231,837.295,0.000,0.000,0
1507857704.349,843.395,826.397,631.467,842.778,0.000,0.000,0
1507857704.351,841.065,838.392,760.940,848.124,0.000,0.000,0
1507857704.353,848.673,838.049,765.670,853.539,0.000,0.000,0
1507857704.355,863.066,815.705,363.061,864.437,0.000,0.000,0
1507857704.357,848.741,846.000,998.092,829.139,0.000,0.000,0
1507857704.359,844.834,821.668,668.753,826.397,0.000,0.000,0
1507857704.361,847.508,857.377,1110.842,824.204,0.000,0.000,0
1507857704.363,848.467,842.161,728.589,839.900,0.000,0.000,0
1507857704.365,833.868,823.313,548.875,845.520,0.000,0.000,0
1507857704.367,833.662,825.232,607.889,853.402,0.000,0.000,0
1507857704.369,832.977,836.541,712.688,863.135,0.000,0.000,0
1507857704.371,841.476,826.466,469.710,877.460,0.000,0.000,0
1507857704.373,825.712,825.986,940.449,853.196,0.000,0.000,0
1507857704.375,834.896,837.295,923.931,833.388,0.000,0.000,0
1507857704.377,843.669,893.841,1634.357,829.413,0.000,0.000,0
1507857704.379,859.639,840.037,346.748,857.857,0.000,0.000,0
1507857704.381,855.458,808.782,266.144,856.007,0.000,0.000,2
1507857704.383,857.035,833.457,680.062,859.845,0.000,0.000,0
1507857704.385,856.349,844.149,798.775,864.300,0.000,0.000,0
1507857704.387,863.135,840.654,610.905,879.927,0.000,0.000,0
1507857704.389,854.567,825.780,869.578,851.003,0.000,0.000,0
1507857704.391,847.439,828.796,618.787,836.747,0.000,0.000,0
1507857704.393,834.279,881.504,1556.494,830.098,0.000,0.000,0
1507857704.395,848.673,865.534,754.086,855.458,0.000,0.000,0
1507857704.397,848.741,801.517,95.409,863.820,0.000,0.000,0
1507857704.399,848.056,824.204,530.849,862.312,0.000,0.000,0
1507857704.401,853.471,849.153,827.288,843.190,0.000,0.000,0
1507857704.403,847.645,849.975,783.422,839.762,0.000,0.000,0
1507857704.405,852.511,826.191,416.249,864.300,0.000,0.000,0
1507857704.407,838.734,830.989,876.706,829.893,0.000,0.000,0
1507857704.409,827.151,840.516,990.758,806.863,0.000,0.000,0
1507857704.411,830.030,867.590,1215.572,807.343,0.000,0.000,0
1507857704.413,835.170,838.940,716.320,819.749,0.000,0.000,0
1507857704.415,835.444,827.973,599.664,830.784,0.000,0.000,0
1507857704.417,840.516,838.734,727.698,845.588,0.000,0.000,0
1507857704.419,854.293,849.701,815.499,864.643,0.000,0.000,0
1507857704.421,869.783,824.752,670.741,876.775,0.000,0.000,0
1507857704.423,871.840,841.407,545.654,860.256,0.000,0.000,0
1507857704.425,864.437,871.840,1412.627,845.726,0.000,0.000,0
1507857704.427,856.692,899.667,1442.716,858.268,0.000,0.000,0
1507857704.429,858.474,822.901,72.722,876.158,0.000,0.000,0
1507857704.431,849.975,808.165,203.018,860.873,0.000,0.000,0
1507857704.433,846.411,834.211,599.595,858.474,0.000,0.000,0
1507857704.435,846.959,846.137,766.561,864.985,0.000,0.000,0
1507857704.437,848.741,846.617,766.492,879.311,0.000,0.000,0
1507857704.439,865.739,819.817,385.885,889.386,0.000,0.000,0
1507857704.441,857.789,854.704,988.839,833.045,0.000,0.000,0
1507857704.443,855.938,834.828,727.698,828.727,0.000,0.000,0
1507857704.445,851.620,872.045,1168.279,840.448,0.000,0.000,0
1507857704.447,852.648,832.154,515.976,842.847,0.000,0.000,0
1507857704.449,844.081,829.961,584.037,842.984,0.000,0.000,0
1507857704.451,846.685,836.541,705.148,841.750,0.000,0.000,0
1507857704.453,848.604,838.666,760.872,850.935,0.000,0.000,0
1507857704.455,862.312,822.216,390.340,875.609,0.000,0.000,0
1507857704.457,850.729,842.847,944.973,850.455,0.000,0.000,0
1507857704.459,861.216,811.935,221.318,854.979,0.000,0.000,0
1507857704.461,862.038,815.225,199.797,865.191,0.000,0.000,0
1507857704.463,854.773,823.107,440.512,861.421,0.000,0.000,0
1507857704.465,837.295,876.158,1328.870,847.439,0.000,0.000,0
1507857704.467,842.641,907.618,1416.671,840.996,0.000,0.000,0
1507857704.469,845.177,862.655,736.197,843.806,0.000,0.000,0
1507857704.471,855.595,834.142,392.533,863.820,0.000,0.000,0
1507857704.473,845.657,837.775,914.746,852.511,0.000,0.000,0
1507857704.475,841.133,847.850,782.257,845.931,0.000,0.000,0
1507857704.477,831.058,897.405,1570.476,833.388,0.000,0.000,0
1507857704.479,856.555,849.221,402.129,861.696,0.000,0.000,0
1507857704.481,857.103,820.503,401.512,863.272,0.000,0.000,0
1507857704.483,852.580,838.186,727.561,851.277,0.000,0.000,0
1507857704.485,844.972,840.928,698.842,855.321,0.000,0.000,0
1507857704.487,842.161,838.117,687.533,864.437,0.000,0.000,0
1507857704.489,853.608,820.571,384.720,882.738,0.000,0.000,0
1507857704.491,833.868,848.124,972.046,834.965,0.000,0.000,0
1507857704.493,840.448,829.276,717.074,820.571,0.000,0.000,0
1507857704.495,835.033,871.703,1194.256,829.070,0.000,0.000,0
1507857704.497,837.706,834.896,525.023,852.443,0.000,0.000,0
1507857704.499,837.706,829.550,629.479,856.624,0.000,0.000,0
1507857704.501,837.843,836.815,730.097,853.539,0.000,0.000,0
1507857704.503,840.791,839.831,734.347,863.341,0.000,0.000,0
1507857704.505,847.165,812.826,675.744,861.284,0.000,0.000,0
1507857704.507,849.427,832.086,663.133,833.662,0.000,0.000,0
1507857704.509,836.130,866.151,1475.273,818.652,0.000,0.000,0
1507857704.511,840.859,877.666,1133.460,832.771,0.000,0.000,0
1507857704.513,845.177,802.065,51.543,855.047,0.000,0.000,0
1507857704.515,840.585,813.443,426.872,856.212,0.000,0.000,0
1507857704.517,840.585,837.501,734.689,864.711,0.000,0.000,0
1507857704.519,845.383,843.395,809.330,873.896,0.000,0.000,0
1507857704.521,845.040,840.105,778.144,878.419,0.000,0.000,0
1507857704.523,851.277,811.181,389.243,876.158,0.000,0.000,0
1507857704.525,837.569,828.179,887.741,839.968,0.000,0.000,0
1507857704.527,837.638,852.374,1334.833,829.550,0.000,0.000,0
1507857704.529,854.704,860.667,1085.550,847.302,0.000,0.000,0
1507857704.531,856.761,830.921,687.191,856.692,0.000,0.000,0
1507857704.533,843.532,821.599,618.307,869.989,0.000,0.000,0
1507857704.535,835.033,823.655,623.173,867.316,0.000,0.000,0
1507857704.537,848.467,807.206,454.769,870.400,0.000,0.000,0
1507857704.539,843.327,833.251,792.675,837.432,0.000,0.000,0
1507857704.541,823.724,844.492,1213.242,821.051,0.000,0.000,0
1507857704.543,824.341,889.043,1589.325,821.873,0.000,0.000,0
1507857704.545,846.411,831.812,392.259,854.979,0.000,0.000,0
1507857704.547,845.588,790.961,173.066,856.966,0.000,0.000,0
1507857704.549,841.339,816.459,608.711,855.321,0.000,0.000,0
1507857704.551,834.553,833.183,752.716,853.196,0.000,0.000,0
1507857704.553,837.775,834.965,754.977,848.124,0.000,0.000,0
1507857704.555,847.233,836.610,779.858,856.075,0.000,0.000,0
1507857704.557,856.555,806.452,479.169,873.485,0.000,0.000,0
1507857704.559,842.710,837.364,755.046,830.167,0.000,0.000,0
1507857704.561,833.868,828.727,894.321,815.910,0.000,0.000,0
1507857704.563,834.416,849.632,942.985,826.603,0.000,0.000,0
1507857704.565,830.509,830.921,667.451,838.940,0.000,0.000,0
1507857704.567,833.868,829.207,640.720,846.342,0.000,0.000,0
1507857704.569,836.473,814.334,373.959,857.103,0.000,0.000,0
1507857704.571,827.425,844.834,970.264,820.297,0.000,0.000,0
1507857704.573,838.186,821.256,664.435,825.917,0.000,0.000,0
1507857704.575,845.794,875.335,1469.379,831.263,0.000,0.000,0
1507857704.577,845.314,872.799,1148.813,847.919,0.000,0.000,0
1507857704.579,845.794,811.524,94.518,857.446,0.000,0.000,0
1507857704.581,853.813,813.854,426.872,853.813,0.000,0.000,0
1507857704.583,850.112,842.915,793.086,863.409,0.000,0.000,0
1507857704.585,832.771,842.641,719.610,869.578,0.000,0.000,0
1507857704.587,832.908,830.509,664.504,864.026,0.000,0.000,0
1507857704.589,832.223,827.151,696.581,851.346,0.000,0.000,0
1507857704.591,833.045,796.650,464.775,849.975,0.000,0.000,0
1507857704.593,821.599,829.618,601.514,816.390,0.000,0.000,0
1507857704.595,826.603,845.451,1234.146,815.910,0.000,0.000,0
1507857704.597,839.214,862.038,1118.998,830.372,0.000,0.000,0
1507857704.599,842.778,835.719,738.870,843.052,0.000,0.000,0
1507857704.601,838.186,825.026,639.623,844.697,0.000,0.000,0
1507857704.603,838.460,803.916,322.485,861.764,0.000,0.000,0
1507857704.605,832.771,834.965,892.402,832.977,0.000,0.000,0
1507857704.607,832.429,821.188,771.839,831.538,0.000,0.000,0
1507857704.609,831.263,885.753,1629.696,832.223,0.000,0.000,0
1507857704.611,854.704,858.063,727.561,853.539,0.000,0.000,0
1507857704.613,852.031,795.279,46.813,866.219,0.000,0.000,0
1507857704.615,839.557,813.306,425.913,868.413,0.000,0.000,0
1507857704.617,834.142,836.267,718.925,862.929,0.000,0.000,0
1507857704.619,838.734,843.190,790.002,856.349,0.000,0.000,0
1507857704.621,848.604,843.190,796.376,863.341,0.000,0.000,0
1507857704.623,849.427,841.613,730.508,859.022,0.000,0.000,0
1507857704.625,850.866,810.427,509.738,859.982,0.000,0.000,0
1507857704.627,846.479,838.460,782.599,842.915,0.000,0.000,0
1507857704.629,840.996,872.799,1490.352,838.597,0.000,0.000,0
1507857704.631,834.759,854.704,944.836,853.402,0.000,0.000,0
1507857704.633,836.130,824.341,596.374,847.645,0.000,0.000,0
1507857704.635,841.545,823.792,613.783,841.065,0.000,0.000,0
1507857704.637,838.597,807.822,486.777,839.831,0.000,0.000,0
1507857704.639,832.429,842.641,775.882,830.784,0.000,0.000,0
1507857704.641,823.313,824.067,827.082,828.453,0.000,0.000,0
1507857704.643,821.325,883.971,1539.839,826.466,0.000,0.000,0
1507857704.645,840.311,821.462,200.825,860.873,0.000,0.000,0
1507857704.647,842.024,804.190,313.986,869.578,0.000,0.000,0
1507857704.649,844.766,834.553,758.816,860.599,0.000,0.000,0
1507857704.651,847.645,846.000,863.341,858.954,0.000,0.000,0
1507857704.653,847.645,839.488,804.944,853.265,0.000,0.000,0
1507857704.655,857.857,828.042,544.146,862.518,0.000,0.000,0
1507857704.657,836.747,820.571,895.555,839.283,0.000,0.000,0
1507857704.659,836.061,826.945,642.022,820.845,0.000,0.000,0
1507857704.661,832.703,868.344,1376.780,821.188,0.000,0.000,0
1507857704.663,832.977,837.364,661.899,837.638,0.000,0.000,0
1507857704.665,831.058,820.914,590.548,837.089,0.000,0.000,0
1507857704.667,838.940,829.002,708.987,847.850,0.000,0.000,0
1507857704.669,841.887,818.515,448.257,868.550,0.000,0.000,0
1507857704.671,837.226,828.179,953.198,849.016,0.000,0.000,0
1507857704.673,855.458,832.977,883.766,851.552,0.000,0.000,0
1507857704.675,861.353,876.706,1383.360,862.038,0.000,0.000,0
1507857704.677,863.135,839.831,788.768,868.481,0.000,0.000,0
1507857704.679,853.608,816.801,316.796,862.587,0.000,0.000,0
1507857704.681,833.594,810.564,400.690,860.667,0.000,0.000,0
1507857704.683,828.385,827.631,628.520,857.035,0.000,0.000,0
1507857704.685,827.151,835.513,725.436,841.819,0.000,0.000,0
1507857704.687,828.864,836.610,737.431,841.133,0.000,0.000,0
1507857704.689,838.460,819.406,434.892,856.624,0.000,0.000,0
1507857704.691,824.546,829.207,971.909,819.543,0.000,0.000,0
1507857704.693,831.126,808.028,514.536,827.425,0.000,0.000,0
1507857704.695,828.659,844.560,1113.789,837.706,0.000,0.000,0
1507857704.697,835.924,835.719,812.072,846.068,0.000,0.000,0
1507857704.699,839.762,829.550,692.811,830.647,0.000,0.000,0
1507857704.701,831.812,829.344,663.270,831.949,0.000,0.000,0
1507857704.703,829.139,832.634,669.850,850.112,0.000,0.000,0
1507857704.705,842.161,812.141,602.337,869.167,0.000,0.000,0
1507857704.707,851.757,834.279,546.819,860.530,0.000,0.000,0
1507857704.709,852.580,851.894,1298.712,856.075,0.000,0.000,0
1507857704.711,860.051,880.339,1115.708,861.558,0.000,0.000,0
1507857704.713,836.815,807.343,66.553,839.488,0.000,0.000,0
1507857704.715,827.219,815.499,432.973,837.912,0.000,0.000,0
1507857704.717,832.086,838.186,697.060,848.193,0.000,0.000,0
1507857704.719,829.893,843.395,758.816,849.016,0.000,0.000,0
1507857704.721,841.545,812.483,408.229,856.418,0.000,0.000,0
1507857704.723,839.557,836.884,774.169,829.961,0.000,0.000,0
1507857704.725,832.703,840.516,1118.038,820.023,0.000,0.000,0
1507857704.727,825.917,864.437,1211.871,817.761,0.000,0.000,0
1507857704.729,831.332,838.049,661.830,832.497,0.000,0.000,0
1507857704.731,836.678,825.026,610.493,849.221,0.000,0.000,0
1507857704.733,850.044,833.594,742.160,860.051,0.000,0.000,0
1507857704.735,851.209,839.214,795.965,861.421,0.000,0.000,0
1507857704.737,850.181,838.940,753.058,857.309,0.000,0.000,0
1507857704.739,854.979,807.754,574.441,848.056,0.000,0.000,0
1507857704.741,835.102,824.821,642.845,832.840,0.000,0.000,0
1507857704.743,822.559,854.293,1397.891,826.054,0.000,0.000,0
1507857704.745,840.585,855.801,886.439,853.745,0.000,0.000,0
1507857704.747,851.894,817.829,487.394,871.771,0.000,0.000,0
1507857704.749,840.654,825.095,605.490,864.163,0.000,0.000,0
1507857704.751,830.030,829.550,655.319,862.518,0.000,0.000,0
1507857704.753,824.683,830.030,673.825,855.390,0.000,0.000,0
1507857704.755,830.578,812.003,638.732,843.190,0.000,0.000,0
1507857704.757,832.634,839.694,602.337,812.552,0.000,0.000,0
1507857704.759,824.204,837.980,1078.422,807.548,0.000,0.000,0
1507857704.761,832.429,869.304,1123.316,821.462,0.000,0.000,0
1507857704.763,841.202,810.496,272.313,844.560,0.000,0.000,0
1507857704.765,838.323,815.568,526.394,848.330,0.000,0.000,0
1507857704.767,845.109,834.348,788.357,847.713,0.000,0.000,0
1507857704.769,844.492,839.077,790.550,857.994,0.000,0.000,0
1507857704.771,853.265,808.439,488.354,862.107,0.000,0.000,0
1507857704.773,843.052,840.722,791.167,828.727,0.000,0.000,0
1507857704.775,831.195,822.764,789.796,826.534,0.000,0.000,0
1507857704.777,841.065,850.592,992.266,835.719,0.000,0.000,0
1507857704.779,843.121,835.993,746.615,850.181,0.000,0.000,0
1507857704.781,845.451,827.836,664.983,854.979,0.000,0.000,0
1507857704.783,848.262,827.631,727.424,870.674,0.000,0.000,0
1507857704.785,846.137,827.631,719.747,874.376,0.000,0.000,0
1507857704.787,836.678,827.288,658.678,863.546,0.000,0.000,0
1507857704.789,838.529,803.779,603.297,858.748,0.000,0.000,0
1507857704.791,839.283,828.042,494.317,847.096,0.000,0.000,0
1507857704.793,827.973,855.595,1363.894,833.388,0.000,0.000,0
1507857704.795,848.399,860.325,840.448,846.891,0.000,0.000,0
1507857704.797,844.492,816.938,396.714,847.713,0.000,0.000,0
1507857704.799,848.262,831.812,685.066,851.277,0.000,0.000,0
1507857704.801,843.943,840.379,761.763,857.926,0.000,0.000,0
1507857704.803,833.868,834.553,650.795,859.297,0.000,0.000,0
1507857704.805,838.803,807.343,463.816,863.341,0.000,0.000,0
1507857704.807,828.796,836.747,650.658,832.497,0.000,0.000,0
1507857704.809,821.462,843.327,1129.896,818.926,0.000,0.000,0
1507857704.811,833.799,874.581,1111.733,826.945,0.000,0.000,0
1507857704.813,847.508,814.471,295.274,849.701,0.000,0.000,0
1507857704.815,843.738,824.615,607.272,862.724,0.000,0.000,0
1507857704.817,835.650,839.214,750.522,858.611,0.000,0.000,0
1507857704.819,844.218,844.492,811.249,853.950,0.000,0.000,0
1507857704.821,854.773,815.499,396.920,867.042,0.000,0.000,0
1507857704.823,842.230,841.339,807.137,837.089,0.000,0.000,0
1507857704.825,833.868,836.610,919.544,833.320,0.000,0.000,0
1507857704.827,832.154,886.370,1384.936,847.096,0.000,0.000,0
1507857704.829,840.996,819.337,185.472,870.195,0.000,0.000,0
1507857704.831,842.984,815.773,472.246,861.970,0.000,0.000,0
1507857704.833,841.750,835.993,744.491,852.922,0.000,0.000,0
1507857704.835,846.137,842.436,787.329,855.321,0.000,0.000,0
1507857704.837,847.782,846.342,801.859,858.406,0.000,0.000,0
1507857704.839,860.942,837.569,537.909,873.005,0.000,0.000,0
1507857704.841,859.022,841.956,994.596,844.972,0.000,0.000,0
1507857704.843,854.362,829.413,380.882,844.423,0.000,0.000,0
1507857704.845,834.074,859.297,970.950,841.613,0.000,0.000,0
1507857704.847,838.666,851.826,753.949,855.458,0.000,0.000,0
1507857704.849,838.803,847.165,750.796,850.318,0.000,0.000,0
1507857704.851,833.868,838.871,692.879,854.567,0.000,0.000,0
1507857704.853,827.082,830.578,644.010,866.082,0.000,0.000,0
1507857704.855,845.520,804.601,416.111,867.247,0.000,0.000,0
1507857704.857,840.585,836.952,747.506,836.884,0.000,0.000,0
1507857704.859,846.411,808.097,323.102,845.863,0.000,0.000,0
1507857704.861,842.641,804.190,108.226,851.414,0.000,0.000,0
1507857704.863,833.388,819.680,532.562,856.486,0.000,0.000,0
1507857704.865,818.720,885.822,1625.720,843.052,0.000,0.000,0
1507857704.867,830.852,884.862,1234.558,858.885,0.000,0.000,0
1507857704.869,839.420,843.601,651.686,860.188,0.000,0.000,0
1507857704.871,845.451,813.511,358.263,860.325,0.000,0.000,0
1507857704.873,832.223,848.536,873.622,818.857,0.000,0.000,0
1507857704.875,835.856,827.699,729.412,814.608,0.000,0.000,0
1507857704.877,842.367,871.771,1351.968,820.503,0.000,0.000,0
1507857704.879,855.047,834.074,489.176,849.358,0.000,0.000,0
1507857704.881,846.685,817.213,482.939,849.769,0.000,0.000,0
1507857704.883,840.379,827.014,653.880,849.701,0.000,0.000,0
1507857704.885,837.638,831.469,709.398,849.975,0.000,0.000,0
1507857704.887,840.996,834.553,764.025,853.676,0.000,0.000,0
1507857704.889,848.810,829.344,582.597,868.070,0.000,0.000,0
1507857704.891,837.912,823.176,958.818,844.355,0.000,0.000,0
1507857704.893,828.659,812.072,354.082,828.727,0.000,0.000,0
1507857704.895,815.499,842.230,1018.311,819.200,0.000,0.000,0
1507857704.896,823.450,840.311,836.198,837.226,0.000,0.000,0
1507857704.898,819.611,828.727,692.331,834.279,0.000,0.000,0
1507857704.900,818.926,823.724,640.583,833.320,0.000,0.000,0
1507857704.902,836.061,822.285,521.048,852.854,0.000,0.000,0
1507857704.904,837.501,819.063,884.725,831.195,0.000,0.000,0
1507857704.906,837.775,829.139,858.885,834.759,0.000,0.000,0
1507857704.908,828.042,879.722,1640.936,829.276,0.000,0.000,0
1507857704.910,849.769,852.648,745.862,853.059,0.000,0.000,0
1507857704.912,846.548,790.482,76.217,860.393,0.000,0.000,0
1507857704.914,831.538,811.524,485.886,850.112,0.000,0.000,0
1507857704.916,836.267,833.457,758.062,851.346,0.000,0.000,0
1507857704.918,839.900,839.968,815.362,856.418,0.000,0.000,0
1507857704.920,847.096,812.826,371.012,869.715,0.000,0.000,0
1507857704.922,828.179,832.771,869.304,831.949,0.000,0.000,0
1507857704.924,833.594,826.877,866.493,828.659,0.000,0.000,0
1507857704.926,839.283,884.725,1433.121,834.759,0.000,0.000,0
1507857704.928,854.499,822.764,274.026,861.216,0.000,0.000,0
1507857704.930,847.096,812.483,449.422,862.655,0.000,0.000,0
1507857704.932,851.552,834.279,725.642,859.571,0.000,0.000,0
1507857704.934,844.286,838.666,711.591,862.038,0.000,0.000,0
1507857704.936,839.625,833.868,706.519,864.917,0.000,0.000,0
1507857704.938,854.019,808.851,487.737,879.927,0.000,0.000,0
1507857704.940,851.620,830.030,749.837,863.820,0.000,0.000,0
1507857704.942,834.965,860.119,1427.157,839.009,0.000,0.000,0
1507857704.944,844.149,859.228,910.154,846.411,0.000,0.000,0
1507857704.946,844.560,819.954,512.411,847.987,0.000,0.000,0
1507857704.948,844.560,825.369,639.418,840.448,0.000,0.000,0
1507857704.950,848.399,835.170,723.860,841.407,0.000,0.000,0
1507857704.952,859.228,831.400,545.448,870.674,0.000,0.000,0
1507857704.954,852.991,825.506,905.219,861.970,0.000,0.000,0
1507857704.956,857.926,835.650,795.554,850.935,0.000,0.000,0
1507857704.958,854.225,888.975,1638.949,828.933,0.000,0.000,0
1507857704.960,857.240,858.680,662.447,837.021,0.000,0.000,0
1507857704.962,839.214,795.142,52.914,836.335,0.000,0.000,0
1507857704.964,829.961,815.430,438.867,835.581,0.000,0.000,0
1507857704.966,819.680,839.009,676.155,849.701,0.000,0.000,0
1507857704.968,824.821,846.274,730.371,861.627,0.000,0.000,0
1507857704.970,842.367,846.274,791.715,863.272,0.000,0.000,0
1507857704.972,845.726,822.353,686.368,862.724,0.000,0.000,0
1507857704.974,843.395,834.211,464.775,834.622,0.000,0.000,0
1507857704.976,827.562,839.557,996.310,814.882,0.000,0.000,0
1507857704.978,832.840,852.511,923.177,824.067,0.000,0.000,0
1507857704.980,827.699,838.597,745.313,835.170,0.000,0.000,0
