timestamps,TP9,FP1,FP2,TP10,n/a,n/a
1509076510.984,900.558,824.683,862.655,896.788,0.000,0.000
1509076510.984,850.798,817.075,853.813,842.984,0.000,0.000
1509076510.984,805.012,811.935,841.819,800.763,0.000,0.000
1509076510.984,773.483,809.193,836.884,782.394,0.000,0.000
1509076510.984,779.789,808.919,836.198,798.706,0.000,0.000
1509076510.984,800.900,813.169,842.778,805.903,0.000,0.000
1509076510.984,842.436,816.390,846.891,841.613,0.000,0.000
1509076510.984,885.205,815.842,855.390,883.697,0.000,0.000
1509076510.984,928.043,812.894,864.848,918.721,0.000,0.000
1509076511.000,934.212,813.991,869.920,923.931,0.000,0.000
1509076511.000,901.792,818.309,863.478,900.421,0.000,0.000
1509076511.000,851.826,819.680,852.922,850.660,0.000,0.000
1509076511.000,801.174,819.817,840.791,800.900,0.000,0.000
1509076511.000,772.318,821.873,839.831,781.434,0.000,0.000
1509076511.000,783.833,824.341,840.654,796.376,0.000,0.000
1509076511.000,811.524,825.986,842.778,819.269,0.000,0.000
1509076511.000,836.747,829.207,847.713,851.072,0.000,0.000
1509076511.018,873.690,832.086,856.555,887.398,0.000,0.000
1509076511.018,918.721,834.074,863.409,917.419,0.000,0.000
1509076511.018,936.679,833.731,866.288,927.632,0.000,0.000
1509076511.018,906.179,829.893,864.780,901.998,0.000,0.000
1509076511.018,846.685,823.724,856.075,840.448,0.000,0.000
1509076511.018,798.432,813.374,843.258,792.058,0.000,0.000
1509076511.018,776.499,806.315,836.747,784.176,0.000,0.000
1509076511.018,782.462,811.044,834.142,798.569,0.000,0.000
1509076511.035,809.193,820.434,837.501,818.035,0.000,0.000
1509076511.035,841.956,822.285,847.233,850.729,0.000,0.000
1509076511.035,884.931,824.889,852.785,889.318,0.000,0.000
1509076511.035,923.451,830.441,863.066,913.649,0.000,0.000
1509076511.035,934.897,834.348,866.973,919.681,0.000,0.000
1509076511.035,897.131,829.618,866.356,888.289,0.000,0.000
1509076511.035,851.414,816.733,854.430,846.411,0.000,0.000
1509076511.035,803.504,809.262,843.190,794.937,0.000,0.000
1509076511.035,777.596,802.545,836.815,777.939,0.000,0.000
1509076511.050,780.475,804.807,835.856,790.413,0.000,0.000
1509076511.050,806.383,810.016,840.242,813.991,0.000,0.000
1509076511.050,849.153,812.894,845.931,855.732,0.000,0.000
1509076511.050,884.794,820.091,855.801,884.794,0.000,0.000
1509076511.050,922.286,827.562,862.587,907.001,0.000,0.000
1509076511.050,926.672,832.908,865.877,910.017,0.000,0.000
1509076511.050,894.801,830.304,862.107,889.797,0.000,0.000
1509076511.050,849.153,826.877,853.059,843.121,0.000,0.000
1509076511.068,800.694,824.409,842.298,798.706,0.000,0.000
1509076511.068,779.721,819.543,836.267,785.272,0.000,0.000
1509076511.068,780.817,816.733,832.292,790.482,0.000,0.000
1509076511.068,799.666,817.829,836.678,808.782,0.000,0.000
1509076511.068,827.905,816.390,849.975,838.734,0.000,0.000
1509076511.068,879.859,820.297,857.035,885.205,0.000,0.000
1509076511.068,928.249,825.232,862.381,924.205,0.000,0.000
1509076511.068,939.489,829.070,866.836,931.676,0.000,0.000
1509076511.084,908.989,830.578,862.381,909.263,0.000,0.000
1509076511.084,853.745,826.808,848.741,848.399,0.000,0.000
1509076511.084,800.626,816.938,834.211,797.610,0.000,0.000
1509076511.084,761.969,812.072,829.070,771.701,0.000,0.000
1509076511.084,767.589,807.274,829.618,783.148,0.000,0.000
1509076511.084,793.155,814.539,837.980,801.791,0.000,0.000
1509076511.084,832.771,820.982,843.669,843.121,0.000,0.000
1509076511.084,872.319,829.413,850.866,876.980,0.000,0.000
1509076511.104,912.553,836.610,858.543,905.699,0.000,0.000
1509076511.104,922.903,837.569,861.696,910.154,0.000,0.000
1509076511.104,898.639,833.183,858.748,889.112,0.000,0.000
1509076511.104,847.782,827.699,848.124,832.634,0.000,0.000
1509076511.104,797.336,819.269,835.170,786.849,0.000,0.000
1509076511.104,765.738,814.402,830.715,772.729,0.000,0.000
1509076511.104,761.283,815.293,832.771,778.418,0.000,0.000
1509076511.104,789.385,818.652,835.719,802.476,0.000,0.000
1509076511.104,828.659,820.571,843.327,839.762,0.000,0.000
1509076511.119,872.456,823.998,854.019,877.391,0.000,0.000
1509076511.119,921.326,824.135,860.805,912.896,0.000,0.000
1509076511.119,932.156,825.369,862.381,916.734,0.000,0.000
1509076511.119,897.474,827.288,857.926,891.237,0.000,0.000
1509076511.119,847.576,823.930,846.548,842.230,0.000,0.000
1509076511.119,790.070,820.365,836.610,790.139,0.000,0.000
1509076511.119,761.146,821.188,832.292,771.153,0.000,0.000
1509076511.119,772.592,820.434,831.538,782.188,0.000,0.000
1509076511.135,802.682,814.608,835.719,805.629,0.000,0.000
1509076511.135,837.158,808.234,843.532,844.012,0.000,0.000
1509076511.135,882.189,810.358,849.632,884.383,0.000,0.000
1509076511.135,928.180,817.075,860.051,913.375,0.000,0.000
1509076511.135,934.554,827.219,862.038,914.541,0.000,0.000
1509076511.135,891.716,829.755,857.446,882.875,0.000,0.000
1509076511.135,837.089,829.070,847.165,825.917,0.000,0.000
1509076511.135,790.482,823.724,836.404,781.229,0.000,0.000
1509076511.135,772.387,819.063,829.893,770.879,0.000,0.000
1509076511.158,780.680,818.241,829.755,787.260,0.000,0.000
1509076511.158,807.000,817.761,834.416,811.181,0.000,0.000
1509076511.158,844.286,815.156,839.557,850.318,0.000,0.000
1509076511.158,877.391,818.515,851.003,878.557,0.000,0.000
1509076511.158,919.955,824.546,856.829,907.892,0.000,0.000
1509076511.158,928.934,829.207,857.994,904.808,0.000,0.000
1509076511.158,897.748,829.687,855.184,881.024,0.000,0.000
1509076511.169,845.520,828.316,846.891,832.566,0.000,0.000
1509076511.169,789.385,823.724,837.912,781.640,0.000,0.000
1509076511.169,765.464,819.200,829.413,777.664,0.000,0.000
1509076511.169,768.754,818.309,831.538,784.930,0.000,0.000
1509076511.169,804.670,818.515,833.525,809.742,0.000,0.000
1509076511.169,841.819,811.935,838.392,846.548,0.000,0.000
1509076511.169,883.629,815.979,850.386,880.407,0.000,0.000
1509076511.169,925.370,826.397,856.075,907.070,0.000,0.000
1509076511.169,923.177,828.179,858.337,903.643,0.000,0.000
1509076511.169,888.358,828.522,858.131,877.186,0.000,0.000
1509076511.181,844.286,829.276,845.588,828.864,0.000,0.000
1509076511.181,796.856,823.107,834.553,784.656,0.000,0.000
1509076511.181,782.120,816.116,826.328,782.668,0.000,0.000
1509076511.181,781.434,816.801,827.631,788.151,0.000,0.000
1509076511.181,804.601,820.982,835.376,806.520,0.000,0.000
1509076511.181,837.775,823.792,844.766,844.149,0.000,0.000
1509076511.208,880.818,823.244,852.374,884.725,0.000,0.000
1509076511.208,923.656,825.849,859.571,914.815,0.000,0.000
1509076511.208,933.595,832.086,861.010,922.080,0.000,0.000
1509076511.208,896.583,830.098,859.776,888.495,0.000,0.000
1509076511.208,848.124,823.792,848.878,840.928,0.000,0.000
1509076511.208,791.373,822.353,839.968,783.353,0.000,0.000
1509076511.208,773.826,819.337,832.977,768.617,0.000,0.000
1509076511.208,782.736,820.914,830.372,786.026,0.000,0.000
1509076511.208,808.165,823.724,836.747,808.234,0.000,0.000
1509076511.208,839.077,824.546,845.794,843.738,0.000,0.000
1509076511.208,879.036,824.546,851.277,880.887,0.000,0.000
1509076511.208,920.915,829.961,858.337,910.771,0.000,0.000
1509076511.215,927.221,832.292,860.530,916.460,0.000,0.000
1509076511.215,897.817,825.095,854.773,896.034,0.000,0.000
1509076511.215,840.448,814.334,845.520,835.513,0.000,0.000
1509076511.215,795.485,805.355,834.142,798.227,0.000,0.000
1509076511.239,773.758,799.872,829.824,787.946,0.000,0.000
1509076511.239,777.116,805.903,834.622,794.731,0.000,0.000
1509076511.239,803.504,815.910,839.900,813.717,0.000,0.000
1509076511.239,844.286,820.914,841.407,855.184,0.000,0.000
1509076511.239,883.217,824.067,850.181,886.507,0.000,0.000
1509076511.239,917.488,830.921,864.711,907.138,0.000,0.000
1509076511.239,925.096,834.416,867.110,915.500,0.000,0.000
1509076511.239,891.785,831.058,862.449,894.184,0.000,0.000
1509076511.239,844.081,820.091,848.673,846.685,0.000,0.000
1509076511.239,794.114,811.455,839.283,798.775,0.000,0.000
1509076511.239,773.415,808.988,834.828,785.958,0.000,0.000
1509076511.239,782.188,812.552,834.074,793.155,0.000,0.000
1509076511.249,810.907,817.007,838.049,812.483,0.000,0.000
1509076511.249,847.439,821.188,846.000,852.031,0.000,0.000
1509076511.249,888.769,821.805,852.922,893.156,0.000,0.000
1509076511.249,930.853,827.699,859.639,926.672,0.000,0.000
1509076511.249,930.305,832.497,862.449,920.572,0.000,0.000
1509076511.249,892.128,830.647,859.502,888.015,0.000,0.000
1509076511.269,840.379,822.559,850.729,842.641,0.000,0.000
1509076511.269,789.042,816.733,837.158,798.158,0.000,0.000
1509076511.269,765.875,811.524,828.590,784.724,0.000,0.000
1509076511.269,770.879,816.116,831.675,787.192,0.000,0.000
1509076511.269,799.803,817.418,837.432,805.972,0.000,0.000
1509076511.269,830.784,814.471,846.754,836.404,0.000,0.000
1509076511.269,879.859,817.418,853.882,879.927,0.000,0.000
1509076511.269,924.205,823.792,859.571,913.170,0.000,0.000
1509076511.269,927.015,827.288,861.147,909.057,0.000,0.000
1509076511.269,886.781,824.478,857.103,880.956,0.000,0.000
1509076511.283,836.267,825.849,845.794,832.977,0.000,0.000
1509076511.283,787.192,822.970,836.884,795.211,0.000,0.000
1509076511.283,770.673,811.112,829.550,790.961,0.000,0.000
1509076511.283,773.689,805.286,830.715,793.429,0.000,0.000
1509076511.283,800.009,811.318,834.896,805.286,0.000,0.000
1509076511.283,836.335,816.733,842.915,841.202,0.000,0.000
1509076511.283,884.383,823.450,851.963,885.685,0.000,0.000
1509076511.301,925.507,830.989,861.010,917.008,0.000,0.000
1509076511.301,925.850,834.142,864.917,914.883,0.000,0.000
1509076511.301,889.797,831.469,858.954,887.947,0.000,0.000
1509076511.301,839.146,827.219,847.233,830.715,0.000,0.000
1509076511.301,784.998,819.611,838.871,778.281,0.000,0.000
1509076511.301,767.315,817.829,838.186,767.726,0.000,0.000
1509076511.301,787.671,819.200,835.787,788.768,0.000,0.000
1509076511.301,809.536,822.285,838.323,810.084,0.000,0.000
1509076511.301,831.743,821.668,846.000,848.604,0.000,0.000
1509076511.318,875.678,818.104,854.979,884.314,0.000,0.000
1509076511.318,921.258,822.833,862.998,914.198,0.000,0.000
1509076511.318,928.043,829.618,863.409,922.628,0.000,0.000
1509076511.318,889.729,830.030,861.353,888.015,0.000,0.000
1509076511.318,843.121,820.914,847.028,838.734,0.000,0.000
1509076511.318,794.937,817.213,833.936,793.566,0.000,0.000
1509076511.318,767.520,816.527,831.606,779.652,0.000,0.000
1509076511.318,767.041,815.910,836.678,780.612,0.000,0.000
1509076511.334,802.408,815.979,838.323,802.613,0.000,0.000
1509076511.334,837.569,820.777,846.000,845.726,0.000,0.000
1509076511.334,883.834,824.546,851.620,892.882,0.000,0.000
1509076511.334,919.818,826.877,859.776,918.653,0.000,0.000
1509076511.334,923.245,827.562,865.191,912.690,0.000,0.000
1509076511.334,880.956,824.615,861.147,877.049,0.000,0.000
1509076511.334,835.581,820.777,851.277,832.840,0.000,0.000
1509076511.334,784.861,817.213,841.339,787.603,0.000,0.000
1509076511.351,767.178,816.459,836.610,779.926,0.000,0.000
1509076511.351,779.241,818.926,834.622,792.881,0.000,0.000
1509076511.351,813.443,822.970,837.706,818.583,0.000,0.000
1509076511.351,842.093,821.393,845.931,849.906,0.000,0.000
1509076511.351,885.548,821.668,853.950,888.221,0.000,0.000
1509076511.351,921.326,825.163,865.671,907.961,0.000,0.000
1509076511.351,932.293,828.248,865.671,912.690,0.000,0.000
1509076511.351,893.087,822.901,862.175,888.426,0.000,0.000
1509076511.351,837.295,814.402,851.552,835.239,0.000,0.000
1509076511.366,787.260,809.673,839.488,789.933,0.000,0.000
1509076511.366,772.729,809.604,834.211,779.789,0.000,0.000
1509076511.366,787.055,808.165,832.086,798.501,0.000,0.000
1509076511.366,803.299,810.633,837.569,812.620,0.000,0.000
1509076511.366,836.335,814.334,844.560,850.660,0.000,0.000
1509076511.366,880.339,822.490,855.527,886.781,0.000,0.000
1509076511.366,930.305,827.768,863.341,921.052,0.000,0.000
1509076511.366,932.841,829.893,863.820,922.080,0.000,0.000
1509076511.384,892.813,826.260,856.075,891.442,0.000,0.000
1509076511.384,841.613,822.696,842.847,833.114,0.000,0.000
1509076511.384,795.348,815.430,829.824,792.058,0.000,0.000
1509076511.384,768.206,810.153,828.385,779.721,0.000,0.000
1509076511.384,768.960,816.459,831.812,781.023,0.000,0.000
1509076511.384,803.573,828.179,833.936,805.355,0.000,0.000
1509076511.384,840.859,830.441,839.146,843.601,0.000,0.000
1509076511.384,884.520,835.581,848.810,874.170,0.000,0.000
1509076511.384,930.168,840.516,857.240,901.998,0.000,0.000
1509076511.399,934.692,841.956,861.010,907.344,0.000,0.000
1509076511.399,895.760,836.952,854.362,878.625,0.000,0.000
1509076511.399,842.230,832.292,842.367,820.571,0.000,0.000
1509076511.399,787.466,824.889,829.070,774.512,0.000,0.000
1509076511.399,763.271,820.708,829.070,765.807,0.000,0.000
1509076511.399,779.721,820.708,828.864,788.288,0.000,0.000
1509076511.399,810.838,818.241,830.989,813.374,0.000,0.000
1509076511.419,843.395,819.132,839.420,849.495,0.000,0.000
1509076511.419,882.875,818.857,847.782,884.657,0.000,0.000
1509076511.419,928.523,821.188,853.813,918.721,0.000,0.000
1509076511.419,927.837,826.191,858.543,909.331,0.000,0.000
1509076511.419,884.657,827.699,854.088,870.537,0.000,0.000
1509076511.419,826.397,829.002,844.492,810.358,0.000,0.000
1509076511.419,782.462,826.466,829.824,779.721,0.000,0.000
1509076511.419,760.187,820.365,823.861,777.596,0.000,0.000
1509076511.419,774.237,818.857,826.328,789.453,0.000,0.000
1509076511.419,806.657,822.901,829.824,809.673,0.000,0.000
1509076511.433,842.230,826.877,837.912,846.068,0.000,0.000
1509076511.433,890.620,832.360,846.137,880.339,0.000,0.000
1509076511.433,936.542,833.594,850.798,914.266,0.000,0.000
1509076511.433,926.809,833.525,856.007,901.312,0.000,0.000
1509076511.433,881.572,830.441,852.580,859.365,0.000,0.000
1509076511.433,828.179,827.219,841.613,806.794,0.000,0.000
1509076511.433,785.135,827.699,832.977,771.564,0.000,0.000
1509076511.450,771.839,827.357,829.207,769.919,0.000,0.000
1509076511.450,785.204,826.877,829.139,785.752,0.000,0.000
1509076511.450,817.898,820.297,830.441,814.265,0.000,0.000
1509076511.450,847.508,816.253,841.407,849.838,0.000,0.000
1509076511.450,883.149,814.814,853.128,876.912,0.000,0.000
1509076511.450,922.354,822.216,863.135,900.216,0.000,0.000
1509076511.450,933.732,826.603,861.079,905.082,0.000,0.000
1509076511.450,892.265,829.550,854.979,874.924,0.000,0.000
1509076511.450,835.307,832.497,842.710,820.845,0.000,0.000
1509076511.466,790.070,829.276,831.195,782.051,0.000,0.000
1509076511.466,775.060,827.014,828.796,775.128,0.000,0.000
1509076511.466,785.821,822.559,827.631,792.949,0.000,0.000
1509076511.466,808.645,825.163,832.360,813.511,0.000,0.000
1509076511.466,833.388,828.864,842.504,842.504,0.000,0.000
1509076511.466,880.750,832.566,847.576,881.709,0.000,0.000
1509076511.466,924.342,837.295,854.773,912.279,0.000,0.000
1509076511.466,923.725,837.364,860.393,908.029,0.000,0.000
1509076511.483,885.753,834.896,856.075,877.871,0.000,0.000
1509076511.483,834.279,831.195,844.012,826.808,0.000,0.000
1509076511.483,791.441,823.450,830.304,793.292,0.000,0.000
1509076511.483,770.947,819.611,827.288,777.802,0.000,0.000
1509076511.483,775.745,821.188,831.400,779.789,0.000,0.000
1509076511.483,804.807,827.082,835.444,802.819,0.000,0.000
1509076511.483,845.588,829.550,838.666,847.645,0.000,0.000
1509076511.483,883.492,830.989,845.588,882.669,0.000,0.000
1509076511.533,927.769,832.292,855.253,910.976,0.000,0.000
1509076511.533,930.373,827.014,859.639,909.469,0.000,0.000
1509076511.533,893.567,814.334,852.443,886.096,0.000,0.000
1509076511.533,833.388,813.100,839.214,825.917,0.000,0.000
1509076511.533,778.213,803.641,831.126,772.592,0.000,0.000
1509076511.533,765.121,803.847,830.578,765.053,0.000,0.000
1509076511.533,784.861,813.511,828.248,789.796,0.000,0.000
1509076511.533,814.060,821.531,833.457,815.430,0.000,0.000
1509076511.533,850.044,827.357,842.641,854.841,0.000,0.000
1509076511.535,895.075,833.457,850.455,890.757,0.000,0.000
1509076511.535,937.296,839.762,859.434,918.379,0.000,0.000
1509076511.535,936.199,842.298,859.434,917.556,0.000,0.000
1509076511.535,891.648,837.364,855.527,882.189,0.000,0.000
1509076511.535,835.787,831.126,845.863,830.098,0.000,0.000
1509076511.535,785.958,824.546,834.211,793.360,0.000,0.000
1509076511.535,768.411,821.119,828.590,785.067,0.000,0.000
1509076511.535,786.095,819.269,829.687,798.981,0.000,0.000
1509076511.538,817.898,819.886,834.622,822.422,0.000,0.000
1509076511.538,852.717,822.901,846.411,861.696,0.000,0.000
1509076511.538,888.975,827.151,852.305,893.773,0.000,0.000
1509076511.538,923.108,827.494,860.256,912.005,0.000,0.000
1509076511.538,929.551,824.752,859.982,914.198,0.000,0.000
1509076511.538,892.059,822.833,854.773,883.012,0.000,0.000
1509076511.538,843.669,813.991,846.068,828.933,0.000,0.000
1509076511.538,794.183,804.395,837.158,788.083,0.000,0.000
1509076511.538,773.895,804.464,832.086,778.761,0.000,0.000
1509076511.549,787.466,808.371,832.154,793.497,0.000,0.000
1509076511.549,820.023,814.265,834.142,817.898,0.000,0.000
1509076511.549,853.813,822.901,841.339,854.430,0.000,0.000
1509076511.549,890.688,831.812,852.305,886.302,0.000,0.000
1509076511.549,929.688,836.061,860.051,912.964,0.000,0.000
1509076511.549,926.535,838.666,861.833,908.235,0.000,0.000
1509076511.549,882.669,837.089,856.144,874.033,0.000,0.000
1509076511.568,834.759,835.033,844.560,822.147,0.000,0.000
1509076511.568,791.167,827.836,836.267,783.902,0.000,0.000
1509076511.568,780.543,820.845,828.316,784.381,0.000,0.000
1509076511.568,787.329,821.393,832.154,793.086,0.000,0.000
1509076511.568,814.608,823.107,838.940,814.814,0.000,0.000
1509076511.568,843.258,828.796,850.866,852.031,0.000,0.000
1509076511.568,892.882,830.989,851.552,898.159,0.000,0.000
1509076511.568,933.663,829.961,857.309,926.946,0.000,0.000
1509076511.568,931.744,829.207,860.599,922.080,0.000,0.000
1509076511.584,888.906,825.163,855.047,888.975,0.000,0.000
1509076511.584,835.239,822.490,844.218,832.771,0.000,0.000
1509076511.584,793.909,810.016,833.525,796.924,0.000,0.000
1509076511.584,775.608,798.775,829.755,785.135,0.000,0.000
1509076511.584,790.619,801.859,830.715,797.336,0.000,0.000
1509076511.584,815.225,815.636,835.924,815.499,0.000,0.000
1509076511.584,849.153,826.260,843.943,856.555,0.000,0.000
1509076511.584,893.361,829.413,853.265,893.978,0.000,0.000
1509076511.600,931.127,832.292,858.680,913.170,0.000,0.000
1509076511.600,930.168,835.993,859.365,902.820,0.000,0.000
1509076511.600,893.430,833.320,853.402,871.840,0.000,0.000
1509076511.600,841.133,830.098,843.327,820.503,0.000,0.000
1509076511.600,794.937,825.780,832.977,786.164,0.000,0.000
1509076511.600,775.882,822.559,828.111,780.406,0.000,0.000
1509076511.600,787.671,820.365,827.357,797.678,0.000,0.000
1509076511.600,805.561,820.914,834.279,815.088,0.000,0.000
1509076511.600,835.581,821.942,848.193,845.451,0.000,0.000
1509076511.615,886.507,826.397,854.773,887.467,0.000,0.000
1509076511.615,931.333,832.497,861.490,921.052,0.000,0.000
1509076511.615,933.801,829.824,861.284,919.681,0.000,0.000
1509076511.615,894.938,828.316,855.390,878.762,0.000,0.000
1509076511.615,833.936,825.369,847.782,814.060,0.000,0.000
1509076511.615,789.659,816.596,838.049,783.970,0.000,0.000
1509076511.615,776.499,810.633,833.799,784.998,0.000,0.000
1509076511.635,789.659,809.810,835.239,799.460,0.000,0.000
1509076511.635,820.160,814.128,838.597,821.393,0.000,0.000
1509076511.635,860.051,811.112,844.560,869.646,0.000,0.000
1509076511.635,897.817,812.620,854.499,898.913,0.000,0.000
1509076511.635,933.595,822.696,862.381,922.217,0.000,0.000
1509076511.635,927.221,834.622,865.397,912.210,0.000,0.000
1509076511.635,886.781,838.940,857.446,875.061,0.000,0.000
1509076511.635,836.198,834.896,842.093,821.599,0.000,0.000
1509076511.635,794.114,827.699,832.771,788.357,0.000,0.000
1509076511.635,782.257,822.764,830.509,786.506,0.000,0.000
1509076511.649,793.360,823.450,831.743,795.965,0.000,0.000
1509076511.649,816.664,826.328,837.706,819.474,0.000,0.000
1509076511.649,853.813,824.615,843.532,868.550,0.000,0.000
1509076511.649,898.091,829.824,854.293,895.623,0.000,0.000
1509076511.649,935.034,836.747,861.764,918.721,0.000,0.000
1509076511.649,922.697,832.840,864.232,909.469,0.000,0.000
1509076511.649,878.351,829.893,858.474,878.899,0.000,0.000
1509076511.668,833.388,824.067,847.028,828.042,0.000,0.000
1509076511.668,793.155,818.926,836.404,791.373,0.000,0.000
1509076511.668,781.366,818.995,832.154,794.457,0.000,0.000
1509076511.668,792.606,822.147,833.936,801.448,0.000,0.000
1509076511.668,826.191,823.861,840.242,820.160,0.000,0.000
1509076511.668,860.667,826.466,851.826,852.717,0.000,0.000
1509076511.668,913.170,831.812,856.075,897.542,0.000,0.000
1509076511.668,945.041,832.840,865.739,921.806,0.000,0.000
1509076511.668,929.825,832.497,868.481,908.098,0.000,0.000
1509076511.683,881.024,830.098,862.381,868.275,0.000,0.000
1509076511.683,823.861,819.269,846.000,811.592,0.000,0.000
1509076511.683,786.095,813.785,834.211,784.107,0.000,0.000
1509076511.683,769.440,812.826,833.045,779.721,0.000,0.000
1509076511.683,779.858,814.402,833.114,790.413,0.000,0.000
1509076511.683,801.654,817.692,841.407,808.439,0.000,0.000
1509076511.683,838.597,823.998,849.084,845.246,0.000,0.000
1509076511.683,887.741,829.618,856.212,881.915,0.000,0.000
1509076511.700,930.168,835.993,863.752,909.606,0.000,0.000
1509076511.700,918.310,833.045,866.014,904.054,0.000,0.000
1509076511.700,878.694,825.575,858.543,878.008,0.000,0.000
1509076511.700,820.777,821.256,845.657,818.172,0.000,0.000
1509076511.700,768.686,817.487,839.283,773.621,0.000,0.000
1509076511.700,755.389,817.144,838.255,770.399,0.000,0.000
1509076511.700,778.555,815.225,836.541,794.937,0.000,0.000
1509076511.700,813.032,815.636,839.625,821.119,0.000,0.000
1509076511.700,846.617,820.297,847.439,858.063,0.000,0.000
1509076511.715,891.922,826.466,856.349,893.978,0.000,0.000
1509076511.715,931.470,833.251,864.232,916.528,0.000,0.000
1509076511.715,927.358,830.372,862.381,909.948,0.000,0.000
1509076511.715,882.532,824.683,856.486,869.098,0.000,0.000
1509076511.715,824.341,816.870,847.782,807.343,0.000,0.000
1509076511.715,785.958,807.480,839.557,785.204,0.000,0.000
1509076511.715,773.621,808.097,836.267,792.195,0.000,0.000
1509076511.734,788.768,808.851,838.803,804.121,0.000,0.000
1509076511.734,821.736,810.838,844.972,821.393,0.000,0.000
1509076511.734,859.091,809.673,850.318,865.054,0.000,0.000
1509076511.734,894.869,822.147,861.147,898.228,0.000,0.000
1509076511.734,928.112,827.631,868.344,922.903,0.000,0.000
1509076511.734,912.073,831.949,872.525,904.122,0.000,0.000
1509076511.734,876.569,832.634,865.260,871.703,0.000,0.000
1509076511.734,829.413,830.852,851.894,817.692,0.000,0.000
1509076511.734,786.164,825.163,840.654,785.204,0.000,0.000
1509076511.734,773.483,820.023,836.198,784.313,0.000,0.000
1509076511.749,789.042,817.487,837.706,797.747,0.000,0.000
1509076511.749,820.434,819.749,843.806,829.824,0.000,0.000
1509076511.749,857.172,822.901,849.975,870.126,0.000,0.000
1509076511.749,899.530,829.824,860.256,899.736,0.000,0.000
1509076511.749,931.950,833.183,870.811,917.556,0.000,0.000
1509076511.749,925.233,828.796,871.565,909.537,0.000,0.000
1509076511.749,878.419,822.422,862.587,873.073,0.000,0.000
1509076511.768,824.478,819.886,851.552,818.652,0.000,0.000
1509076511.768,783.079,816.596,844.834,789.042,0.000,0.000
1509076511.768,777.253,811.112,839.214,798.021,0.000,0.000
1509076511.768,789.111,814.334,839.625,805.698,0.000,0.000
1509076511.768,819.543,820.365,845.246,828.933,0.000,0.000
1509076511.768,846.479,818.583,857.583,859.845,0.000,0.000
1509076511.768,893.156,818.857,862.792,904.945,0.000,0.000
1509076511.768,929.551,824.683,868.961,927.289,0.000,0.000
1509076511.768,922.286,830.441,868.550,918.790,0.000,0.000
1509076511.783,873.759,826.603,860.256,877.871,0.000,0.000
1509076511.783,818.583,823.724,846.822,817.692,0.000,0.000
1509076511.783,780.886,820.640,836.541,789.796,0.000,0.000
1509076511.783,767.932,819.886,834.965,786.438,0.000,0.000
1509076511.783,782.257,822.559,836.541,801.585,0.000,0.000
1509076511.783,809.467,825.506,842.915,820.434,0.000,0.000
1509076511.783,845.314,823.792,849.906,860.256,0.000,0.000
1509076511.783,889.249,824.821,857.446,894.115,0.000,0.000
1509076511.800,927.837,829.139,861.490,914.541,0.000,0.000
1509076511.800,922.354,833.799,863.957,907.892,0.000,0.000
1509076511.800,888.975,828.796,856.144,880.064,0.000,0.000
1509076511.800,830.852,822.010,846.068,820.297,0.000,0.000
1509076511.800,779.926,815.842,841.270,775.540,0.000,0.000
1509076511.800,770.605,814.128,839.900,777.253,0.000,0.000
1509076511.800,792.881,817.281,838.666,802.682,0.000,0.000
1509076511.800,820.091,820.982,845.040,830.509,0.000,0.000
1509076511.800,849.495,825.712,852.511,868.001,0.000,0.000
1509076511.814,897.200,835.444,860.393,899.941,0.000,0.000
1509076511.814,932.909,844.766,865.739,920.915,0.000,0.000
1509076511.814,926.124,843.806,862.929,915.432,0.000,0.000
1509076511.814,874.855,834.553,859.434,872.182,0.000,0.000
1509076511.814,814.745,825.232,851.963,809.536,0.000,0.000
1509076511.814,780.269,819.886,841.339,782.051,0.000,0.000
1509076511.814,771.633,816.459,838.871,785.478,0.000,0.000
1509076511.835,781.983,812.963,839.351,800.694,0.000,0.000
1509076511.835,814.471,812.689,843.532,830.509,0.000,0.000
1509076511.835,849.153,814.882,850.660,872.182,0.000,0.000
1509076511.835,890.209,822.147,860.325,903.368,0.000,0.000
1509076511.835,916.802,834.074,872.731,915.089,0.000,0.000
1509076511.835,908.577,835.307,872.182,903.711,0.000,0.000
1509076511.835,872.662,825.369,861.970,876.980,0.000,0.000
1509076511.835,820.914,819.954,851.620,824.272,0.000,0.000
1509076511.835,781.297,815.705,840.791,789.453,0.000,0.000
1509076511.835,774.854,816.527,838.529,783.696,0.000,0.000
1509076511.849,790.550,818.035,838.323,789.933,0.000,0.000
1509076511.849,811.661,823.450,840.654,816.047,0.000,0.000
1509076511.849,848.124,824.752,847.782,867.316,0.000,0.000
1509076511.849,890.757,827.219,859.434,899.804,0.000,0.000
1509076511.849,921.258,826.123,866.493,909.674,0.000,0.000
1509076511.849,912.347,827.014,864.643,897.200,0.000,0.000
1509076511.849,871.223,822.353,855.801,858.748,0.000,0.000
1509076511.868,821.188,818.172,844.903,807.754,0.000,0.000
1509076511.868,780.200,813.374,835.787,774.923,0.000,0.000
1509076511.868,773.826,812.963,831.332,777.939,0.000,0.000
1509076511.868,786.643,816.870,832.017,783.970,0.000,0.000
1509076511.868,813.443,821.668,837.980,808.645,0.000,0.000
1509076511.868,843.669,827.357,850.181,848.399,0.000,0.000
1509076511.868,895.143,831.743,856.761,894.938,0.000,0.000
1509076511.868,928.112,835.102,862.998,916.391,0.000,0.000
1509076511.868,916.117,830.441,862.175,904.534,0.000,0.000
1509076511.883,874.787,825.300,853.334,866.768,0.000,0.000
1509076511.883,826.123,820.091,843.532,812.826,0.000,0.000
1509076511.883,785.204,809.467,833.388,780.200,0.000,0.000
1509076511.883,769.440,805.355,831.743,776.911,0.000,0.000
1509076511.883,782.531,808.508,831.812,793.772,0.000,0.000
1509076511.883,804.395,818.241,838.734,813.374,0.000,0.000
1509076511.883,844.149,825.643,846.754,853.196,0.000,0.000
1509076511.883,895.143,831.400,856.692,892.059,0.000,0.000
1509076511.905,929.277,830.715,863.478,914.061,0.000,0.000
1509076511.905,919.201,831.058,864.300,903.163,0.000,0.000
1509076511.905,877.940,829.481,856.007,872.662,0.000,0.000
1509076511.905,820.434,828.796,844.149,808.439,0.000,0.000
1509076511.905,773.278,822.833,835.307,765.738,0.000,0.000
1509076511.905,762.860,817.624,832.908,762.585,0.000,0.000
1509076511.905,784.998,815.842,834.759,787.740,0.000,0.000
1509076511.905,818.652,820.571,839.283,816.733,0.000,0.000
1509076511.905,853.745,827.425,847.782,855.253,0.000,0.000
1509076511.915,900.558,834.690,855.321,893.978,0.000,0.000
1509076511.915,940.312,835.307,858.817,927.769,0.000,0.000
1509076511.915,922.286,834.074,860.119,913.924,0.000,0.000
1509076511.915,869.715,833.594,858.406,861.627,0.000,0.000
1509076511.915,829.550,825.849,846.137,811.249,0.000,0.000
1509076511.915,789.933,822.422,837.569,780.543,0.000,0.000
1509076511.915,767.315,823.587,834.485,779.515,0.000,0.000
1509076511.935,780.406,825.095,839.283,798.364,0.000,0.000
1509076511.935,814.677,821.051,843.806,829.139,0.000,0.000
1509076511.935,863.272,821.119,850.455,876.295,0.000,0.000
1509076511.935,906.727,828.316,860.667,901.998,0.000,0.000
1509076511.935,930.236,834.622,867.864,917.145,0.000,0.000
1509076511.935,908.235,831.263,871.703,897.817,0.000,0.000
1509076511.935,876.500,825.575,859.708,868.481,0.000,0.000
1509076511.935,828.796,828.864,847.850,817.350,0.000,0.000
1509076511.935,787.397,829.687,834.965,787.466,0.000,0.000
1509076511.935,779.995,826.808,831.058,793.497,0.000,0.000
1509076511.949,802.408,828.385,834.965,813.648,0.000,0.000
1509076511.949,833.868,826.397,843.121,841.065,0.000,0.000
1509076511.949,871.360,824.341,854.362,882.395,0.000,0.000
1509076511.949,906.110,826.877,865.877,907.892,0.000,0.000
1509076511.949,924.547,829.139,871.017,919.750,0.000,0.000
1509076511.949,901.929,832.017,868.755,902.957,0.000,0.000
1509076511.949,857.515,828.385,856.898,863.066,0.000,0.000
1509076511.966,811.387,822.490,845.931,807.548,0.000,0.000
1509076511.966,775.608,818.995,839.009,776.773,0.000,0.000
1509076511.966,770.125,811.592,836.061,786.575,0.000,0.000
1509076511.966,777.322,805.355,841.819,797.678,0.000,0.000
1509076511.966,805.561,811.661,846.479,818.583,0.000,0.000
1509076511.966,844.492,819.543,856.144,854.979,0.000,0.000
1509076511.966,901.655,824.958,862.107,897.200,0.000,0.000
1509076511.966,933.869,829.276,868.550,912.347,0.000,0.000
1509076511.966,915.500,827.905,865.602,891.716,0.000,0.000
1509076511.983,863.135,825.780,857.240,849.701,0.000,0.000
1509076511.983,807.274,820.777,844.492,795.348,0.000,0.000
1509076511.983,775.471,813.785,832.703,773.552,0.000,0.000
1509076511.983,765.944,810.358,833.045,773.552,0.000,0.000
1509076511.983,779.035,809.125,837.501,780.886,0.000,0.000
1509076511.983,816.390,808.988,843.532,812.278,0.000,0.000
1509076511.983,855.801,813.991,851.483,855.527,0.000,0.000
1509076511.983,901.655,821.188,859.228,891.922,0.000,0.000
1509076511.999,929.825,826.260,866.493,910.702,0.000,0.000
1509076511.999,913.238,826.945,866.151,895.006,0.000,0.000
1509076511.999,876.158,822.559,856.555,861.833,0.000,0.000
1509076511.999,818.378,820.503,846.068,805.149,0.000,0.000
1509076511.999,767.246,816.870,838.117,774.649,0.000,0.000
1509076511.999,761.557,813.032,837.295,782.668,0.000,0.000
1509076511.999,787.123,814.265,837.980,799.735,0.000,0.000
1509076511.999,823.107,818.309,842.367,824.341,0.000,0.000
1509076512.016,856.281,824.958,851.757,864.643,0.000,0.000
1509076512.016,897.885,832.908,860.188,904.259,0.000,0.000
1509076512.016,932.909,834.485,862.038,926.672,0.000,0.000
1509076512.016,917.762,830.167,862.587,904.945,0.000,0.000
1509076512.016,865.945,821.805,857.926,856.829,0.000,0.000
1509076512.016,807.754,821.393,849.427,797.678,0.000,0.000
1509076512.016,778.830,815.362,837.089,777.253,0.000,0.000
1509076512.016,772.592,812.963,835.444,781.708,0.000,0.000
1509076512.016,789.591,813.237,838.255,801.859,0.000,0.000
1509076512.033,821.942,812.141,845.314,830.304,0.000,0.000
1509076512.033,858.817,814.608,853.471,869.098,0.000,0.000
1509076512.033,909.743,820.914,858.748,908.372,0.000,0.000
1509076512.033,935.857,824.752,864.643,918.859,0.000,0.000
1509076512.033,911.182,822.559,863.957,896.309,0.000,0.000
1509076512.033,863.341,820.914,854.499,853.950,0.000,0.000
1509076512.033,815.293,818.446,842.573,804.601,0.000,0.000
1509076512.033,777.253,815.293,835.307,781.023,0.000,0.000
1509076512.050,768.000,817.418,832.771,786.164,0.000,0.000
1509076512.050,788.288,822.764,833.799,802.065,0.000,0.000
1509076512.050,823.244,823.313,837.364,834.142,0.000,0.000
1509076512.050,856.966,823.792,849.084,874.170,0.000,0.000
1509076512.050,898.365,825.506,859.982,904.602,0.000,0.000
1509076512.050,930.648,831.400,867.453,917.351,0.000,0.000
1509076512.050,914.609,831.812,863.066,906.453,0.000,0.000
1509076512.050,860.188,826.328,854.156,867.727,0.000,0.000
1509076512.066,807.068,817.624,841.407,815.088,0.000,0.000
1509076512.066,772.181,810.975,834.142,782.120,0.000,0.000
1509076512.066,765.601,810.016,832.429,782.325,0.000,0.000
1509076512.066,792.401,812.415,830.921,804.670,0.000,0.000
1509076512.066,823.792,818.789,838.255,828.727,0.000,0.000
1509076512.066,854.225,824.135,850.660,857.172,0.000,0.000
1509076512.066,904.534,826.603,857.926,894.527,0.000,0.000
1509076512.066,932.430,828.042,861.490,908.577,0.000,0.000
1509076512.066,912.621,824.615,859.297,892.333,0.000,0.000
1509076512.083,867.453,825.712,851.483,854.430,0.000,0.000
1509076512.083,815.842,824.615,840.105,806.520,0.000,0.000
1509076512.083,781.845,812.483,831.195,788.837,0.000,0.000
1509076512.083,768.411,808.508,832.154,785.615,0.000,0.000
1509076512.083,782.942,815.636,837.638,791.715,0.000,0.000
1509076512.083,823.930,824.821,841.133,825.026,0.000,0.000
1509076512.083,863.683,828.248,845.794,868.344,0.000,0.000
1509076512.083,902.272,832.566,854.430,902.683,0.000,0.000
1509076512.101,925.370,833.251,861.216,917.693,0.000,0.000
1509076512.101,904.259,830.304,861.147,902.477,0.000,0.000
1509076512.101,862.792,817.350,853.059,868.001,0.000,0.000
1509076512.101,810.633,808.097,841.887,811.044,0.000,0.000
1509076512.101,770.879,805.972,834.074,777.802,0.000,0.000
1509076512.101,764.162,810.838,834.142,780.612,0.000,0.000
1509076512.101,791.030,815.362,833.936,801.448,0.000,0.000
1509076512.101,823.792,819.269,841.133,826.328,0.000,0.000
1509076512.101,862.518,820.503,849.564,866.973,0.000,0.000
1509076512.115,912.621,825.095,858.885,907.070,0.000,0.000
1509076512.115,938.941,830.784,865.671,922.286,0.000,0.000
1509076512.115,919.338,829.481,862.724,910.565,0.000,0.000
1509076512.115,863.957,825.026,857.720,861.970,0.000,0.000
1509076512.115,810.290,820.434,845.931,807.343,0.000,0.000
1509076512.115,778.007,820.023,837.775,783.902,0.000,0.000
1509076512.115,777.116,817.761,836.267,793.566,0.000,0.000
1509076512.133,799.118,809.742,839.420,813.991,0.000,0.000
1509076512.133,830.509,810.084,844.766,841.682,0.000,0.000
1509076512.133,872.251,815.019,850.798,886.096,0.000,0.000
1509076512.133,911.456,823.861,859.845,910.565,0.000,0.000
1509076512.133,935.994,827.905,863.135,921.806,0.000,0.000
1509076512.133,905.493,829.344,864.369,898.639,0.000,0.000
1509076512.133,858.611,824.615,854.088,866.014,0.000,0.000
1509076512.133,805.218,813.100,842.710,815.910,0.000,0.000
1509076512.133,769.440,802.613,836.335,790.619,0.000,0.000
1509076512.149,765.533,803.436,834.485,795.279,0.000,0.000
1509076512.149,789.865,809.193,834.896,811.181,0.000,0.000
1509076512.149,831.058,814.402,838.529,847.165,0.000,0.000
1509076512.149,864.506,818.515,850.318,883.217,0.000,0.000
1509076512.149,905.219,820.023,860.667,910.839,0.000,0.000
1509076512.149,930.922,824.341,865.465,923.314,0.000,0.000
1509076512.149,915.226,823.792,861.421,907.618,0.000,0.000
1509076512.149,865.191,821.736,851.483,859.708,0.000,0.000
1509076512.171,813.923,818.035,839.420,806.315,0.000,0.000
1509076512.171,782.325,815.430,832.977,780.338,0.000,0.000
1509076512.171,788.357,813.100,830.578,799.460,0.000,0.000
1509076512.171,804.601,813.717,833.183,812.689,0.000,0.000
1509076512.171,826.191,816.527,838.460,835.924,0.000,0.000
1509076512.171,861.353,822.079,848.399,875.746,0.000,0.000
1509076512.171,906.521,822.764,856.075,910.085,0.000,0.000
1509076512.171,936.816,821.119,863.135,925.781,0.000,0.000
1509076512.171,915.637,824.341,862.587,904.876,0.000,0.000
1509076512.183,871.703,823.724,852.237,866.082,0.000,0.000
1509076512.183,810.084,821.736,841.956,807.822,0.000,0.000
1509076512.183,778.624,816.184,831.949,785.341,0.000,0.000
1509076512.183,780.132,814.128,827.973,791.921,0.000,0.000
1509076512.183,803.436,822.147,831.400,805.972,0.000,0.000
1509076512.183,835.170,822.285,837.638,834.485,0.000,0.000
1509076512.183,868.070,817.898,847.508,871.017,0.000,0.000
1509076512.183,908.783,824.272,855.253,905.973,0.000,0.000
1509076512.205,933.321,828.796,859.091,926.604,0.000,0.000
1509076512.205,915.089,829.207,859.365,909.674,0.000,0.000
1509076512.205,873.142,818.789,849.564,864.917,0.000,0.000
1509076512.205,816.664,815.293,839.420,803.436,0.000,0.000
1509076512.205,776.019,813.580,832.566,775.128,0.000,0.000
1509076512.205,774.717,817.418,833.662,785.410,0.000,0.000
1509076512.205,805.149,822.147,834.074,811.318,0.000,0.000
1509076512.205,840.311,824.958,840.859,839.351,0.000,0.000
1509076512.218,875.472,825.849,850.798,876.912,0.000,0.000
1509076512.218,924.410,828.179,856.144,915.843,0.000,0.000
1509076512.218,944.973,831.126,858.680,933.321,0.000,0.000
1509076512.218,914.266,826.671,859.571,908.646,0.000,0.000
1509076512.218,857.652,821.805,855.458,852.648,0.000,0.000
1509076512.218,817.350,813.648,840.379,806.726,0.000,0.000
1509076512.218,784.244,806.177,832.703,778.350,0.000,0.000
1509076512.218,774.991,808.645,832.017,783.079,0.000,0.000
1509076512.218,797.884,818.515,835.033,802.271,0.000,0.000
1509076512.231,830.852,823.313,841.476,836.610,0.000,0.000
1509076512.231,863.957,821.325,850.318,877.117,0.000,0.000
1509076512.231,912.690,814.608,857.583,913.855,0.000,0.000
1509076512.231,937.159,814.814,862.518,921.532,0.000,0.000
1509076512.231,914.609,819.132,861.216,900.695,0.000,0.000
1509076512.231,861.353,822.285,853.059,854.841,0.000,0.000
1509076512.231,810.221,820.228,839.968,803.984,0.000,0.000
1509076512.250,777.322,817.898,833.731,783.216,0.000,0.000
1509076512.250,772.113,820.365,833.799,788.974,0.000,0.000
1509076512.250,799.666,820.982,831.880,812.141,0.000,0.000
1509076512.250,828.522,822.010,840.585,833.731,0.000,0.000
1509076512.250,866.768,818.926,849.564,872.936,0.000,0.000
1509076512.250,901.723,825.369,861.010,900.832,0.000,0.000
1509076512.250,931.470,831.949,863.203,922.491,0.000,0.000
1509076512.250,907.344,828.864,859.708,907.207,0.000,0.000
1509076512.250,859.160,822.627,851.140,860.530,0.000,0.000
1509076512.250,811.729,815.636,840.174,808.371,0.000,0.000
1509076512.265,780.886,812.415,832.566,783.833,0.000,0.000
1509076512.265,777.733,810.701,831.126,790.550,0.000,0.000
1509076512.265,806.177,808.645,831.263,814.677,0.000,0.000
1509076512.265,832.360,810.701,840.928,840.928,0.000,0.000
1509076512.265,861.490,812.552,851.826,871.017,0.000,0.000
1509076512.265,907.412,816.870,858.954,904.534,0.000,0.000
1509076512.265,933.184,818.309,863.889,920.024,0.000,0.000
1509076512.284,912.484,823.930,861.627,903.848,0.000,0.000
1509076512.284,862.244,823.244,853.059,860.256,0.000,0.000
1509076512.284,815.910,816.047,839.351,813.511,0.000,0.000
1509076512.284,779.378,812.689,834.896,786.164,0.000,0.000
1509076512.284,772.867,815.019,835.444,787.534,0.000,0.000
1509076512.284,786.232,818.926,839.077,795.965,0.000,0.000
1509076512.284,827.425,818.583,845.863,837.980,0.000,0.000
1509076512.284,867.110,822.696,854.773,879.516,0.000,0.000
1509076512.284,907.207,827.288,861.353,910.017,0.000,0.000
1509076512.299,925.576,828.933,864.163,916.597,0.000,0.000
1509076512.299,904.465,831.675,862.792,897.405,0.000,0.000
1509076512.299,861.284,830.098,852.854,857.515,0.000,0.000
1509076512.299,808.234,823.313,842.161,806.246,0.000,0.000
1509076512.299,775.197,818.583,834.279,781.708,0.000,0.000
1509076512.299,770.056,818.309,836.335,782.736,0.000,0.000
1509076512.299,791.990,819.474,839.420,803.847,0.000,0.000
1509076512.299,823.176,816.116,844.972,835.239,0.000,0.000
1509076512.316,860.256,816.527,851.552,871.908,0.000,0.000
1509076512.316,905.767,824.067,860.325,905.150,0.000,0.000
1509076512.316,932.704,823.587,862.312,924.205,0.000,0.000
1509076512.316,896.720,821.051,861.970,895.623,0.000,0.000
1509076512.316,841.819,816.733,852.991,845.383,0.000,0.000
1509076512.316,786.506,813.923,844.012,788.631,0.000,0.000
1509076512.316,761.146,808.919,834.074,768.411,0.000,0.000
1509076512.316,767.383,812.278,834.690,778.967,0.000,0.000
1509076512.333,794.663,813.785,836.815,799.392,0.000,0.000
1509076512.333,829.687,812.620,844.492,832.292,0.000,0.000
1509076512.333,866.562,818.446,852.785,869.098,0.000,0.000
1509076512.333,909.606,829.755,855.527,905.493,0.000,0.000
1509076512.333,929.140,838.940,860.051,916.734,0.000,0.000
1509076512.333,899.050,840.105,859.913,892.607,0.000,0.000
1509076512.333,852.580,833.045,851.689,849.358,0.000,0.000
1509076512.333,800.283,825.095,838.049,793.429,0.000,0.000
1509076512.333,772.318,818.857,832.086,769.440,0.000,0.000
1509076512.348,775.266,816.321,831.949,778.967,0.000,0.000
1509076512.348,795.896,817.898,833.388,797.267,0.000,0.000
1509076512.348,832.292,818.857,836.747,837.089,0.000,0.000
1509076512.348,868.481,823.107,847.370,869.098,0.000,0.000
1509076512.348,906.316,832.154,856.144,892.402,0.000,0.000
1509076512.348,925.781,842.298,861.147,897.885,0.000,0.000
1509076512.348,901.792,838.049,858.268,881.984,0.000,0.000
1509076512.348,851.963,829.139,848.673,837.021,0.000,0.000
1509076512.366,800.900,820.845,837.638,787.740,0.000,0.000
1509076512.366,772.935,814.402,831.058,772.250,0.000,0.000
1509076512.366,771.427,811.592,828.864,778.076,0.000,0.000
1509076512.366,790.207,814.814,831.332,790.687,0.000,0.000
1509076512.366,815.156,818.446,841.407,814.608,0.000,0.000
1509076512.366,859.845,818.995,848.673,863.820,0.000,0.000
1509076512.366,908.577,822.147,856.692,902.889,0.000,0.000
1509076512.366,928.866,825.712,861.490,911.456,0.000,0.000
1509076512.383,897.680,818.035,860.256,886.165,0.000,0.000
1509076512.383,847.713,809.810,854.019,839.351,0.000,0.000
1509076512.383,798.569,807.274,841.887,791.715,0.000,0.000
1509076512.383,777.322,808.439,833.045,780.269,0.000,0.000
1509076512.383,778.076,811.044,833.799,790.276,0.000,0.000
1509076512.383,782.120,815.088,836.541,791.236,0.000,0.000
1509076512.383,806.246,820.365,840.791,809.673,0.000,0.000
1509076512.383,844.492,826.191,849.016,842.984,0.000,0.000
1509076512.383,894.527,831.332,858.748,884.040,0.000,0.000
1509076512.399,918.584,834.211,863.546,897.131,0.000,0.000
1509076512.399,892.745,836.061,860.736,881.024,0.000,0.000
1509076512.399,846.068,833.388,847.987,843.121,0.000,0.000
1509076512.399,780.954,829.207,836.610,781.297,0.000,0.000
1509076512.399,738.733,821.805,832.566,747.164,0.000,0.000
1509076512.399,739.830,820.640,834.828,752.030,0.000,0.000
1509076512.399,765.259,820.708,835.856,775.334,0.000,0.000
1509076512.399,797.541,824.889,839.625,807.822,0.000,0.000
1509076512.416,840.037,829.550,847.713,845.794,0.000,0.000
1509076512.416,883.697,833.799,854.156,874.581,0.000,0.000
1509076512.416,902.889,832.566,856.692,886.644,0.000,0.000
1509076512.416,869.441,828.796,856.898,858.131,0.000,0.000
1509076512.416,819.680,825.026,847.370,809.947,0.000,0.000
1509076512.416,765.601,824.409,839.009,753.538,0.000,0.000
1509076512.416,736.608,815.910,829.550,739.007,0.000,0.000
1509076512.416,726.464,809.262,828.522,742.297,0.000,0.000
1509076512.433,748.123,811.798,832.086,761.694,0.000,0.000
1509076512.433,786.506,819.063,839.762,799.529,0.000,0.000
1509076512.433,830.304,823.998,847.302,837.775,0.000,0.000
1509076512.433,878.077,829.139,852.580,870.949,0.000,0.000
1509076512.433,889.592,834.074,856.555,874.581,0.000,0.000
1509076512.433,854.773,833.868,858.200,846.137,0.000,0.000
1509076512.433,812.552,832.086,850.181,806.863,0.000,0.000
1509076512.433,762.311,824.341,839.831,761.900,0.000,0.000
1509076512.433,731.742,818.035,834.279,744.422,0.000,0.000
1509076512.446,729.549,815.362,833.594,750.796,0.000,0.000
1509076512.446,741.886,817.350,834.553,760.392,0.000,0.000
1509076512.446,778.761,822.764,837.569,792.743,0.000,0.000
1509076512.446,814.471,830.509,848.399,821.051,0.000,0.000
1509076512.446,852.991,836.952,859.228,845.246,0.000,0.000
1509076512.446,869.235,842.436,866.356,854.841,0.000,0.000
1509076512.446,845.588,839.077,861.284,835.581,0.000,0.000
1509076512.468,791.921,834.211,852.580,783.490,0.000,0.000
1509076512.468,734.826,830.989,839.488,731.125,0.000,0.000
1509076512.468,707.342,827.562,829.618,716.457,0.000,0.000
1509076512.468,703.503,824.615,830.030,713.236,0.000,0.000
1509076512.468,721.255,822.147,836.541,722.146,0.000,0.000
1509076512.468,750.042,820.091,842.367,752.167,0.000,0.000
1509076512.468,793.909,818.378,850.318,803.299,0.000,0.000
1509076512.468,843.121,824.958,858.611,841.956,0.000,0.000
1509076512.468,859.982,832.154,863.066,846.617,0.000,0.000
1509076512.468,827.562,833.183,859.228,817.555,0.000,0.000
1509076512.481,776.362,831.263,848.673,766.629,0.000,0.000
1509076512.481,722.832,829.207,839.420,712.414,0.000,0.000
1509076512.481,699.322,829.002,835.102,697.814,0.000,0.000
1509076512.481,699.459,827.014,832.292,708.096,0.000,0.000
1509076512.481,713.168,829.481,838.323,720.159,0.000,0.000
1509076512.481,740.104,836.267,844.423,745.587,0.000,0.000
1509076512.481,780.406,839.762,851.483,780.543,0.000,0.000
1509076512.481,820.228,841.887,859.708,806.315,0.000,0.000
1509076512.499,830.989,841.065,865.397,811.935,0.000,0.000
1509076512.499,806.452,835.581,862.244,794.868,0.000,0.000
1509076512.499,754.498,828.796,851.483,739.350,0.000,0.000
1509076512.499,699.665,823.998,841.270,690.480,0.000,0.000
1509076512.499,659.500,819.954,841.202,668.753,0.000,0.000
1509076512.499,667.177,817.487,837.501,680.611,0.000,0.000
1509076512.499,700.830,817.350,838.940,701.858,0.000,0.000
1509076512.499,738.459,821.119,843.532,734.278,0.000,0.000
1509076512.516,775.403,829.687,852.374,772.044,0.000,0.000
1509076512.516,815.979,834.279,861.284,806.726,0.000,0.000
1509076512.516,838.871,833.594,863.546,826.054,0.000,0.000
1509076512.516,811.249,831.195,862.724,796.102,0.000,0.000
1509076512.516,762.791,828.522,852.580,748.260,0.000,0.000
1509076512.516,710.152,814.402,845.109,698.294,0.000,0.000
1509076512.516,686.025,802.545,838.186,688.767,0.000,0.000
1509076512.516,688.767,804.738,837.912,698.226,0.000,0.000
1509076512.516,719.131,812.894,839.762,716.800,0.000,0.000
1509076512.531,755.731,821.736,844.560,748.946,0.000,0.000
1509076512.531,795.691,828.796,852.237,789.385,0.000,0.000
1509076512.531,846.754,830.715,858.611,829.070,0.000,0.000
1509076512.531,855.527,832.908,864.163,831.606,0.000,0.000
1509076512.531,812.894,830.098,864.437,801.105,0.000,0.000
1509076512.531,765.327,825.575,850.798,758.336,0.000,0.000
1509076512.531,719.747,819.406,838.117,714.470,0.000,0.000
1509076512.555,701.241,813.511,834.690,704.874,0.000,0.000
1509076512.555,707.136,807.480,834.348,718.445,0.000,0.000
1509076512.555,734.484,808.645,834.348,745.862,0.000,0.000
1509076512.555,759.296,815.430,840.242,772.387,0.000,0.000
1509076512.555,805.286,820.160,846.411,812.346,0.000,0.000
1509076512.555,847.713,821.736,858.748,841.545,0.000,0.000
1509076512.555,876.569,822.490,862.107,859.571,0.000,0.000
1509076512.555,852.031,817.761,858.063,844.218,0.000,0.000
1509076512.555,797.953,816.801,847.782,795.965,0.000,0.000
1509076512.566,744.217,814.677,837.158,748.123,0.000,0.000
1509076512.566,729.549,810.975,832.360,741.338,0.000,0.000
1509076512.566,742.366,810.564,828.864,754.224,0.000,0.000
1509076512.566,760.598,812.209,831.606,767.109,0.000,0.000
1509076512.566,783.079,813.374,841.613,794.251,0.000,0.000
1509076512.566,834.416,819.749,844.286,844.012,0.000,0.000
1509076512.566,879.585,824.615,854.156,878.488,0.000,0.000
1509076512.566,896.788,820.777,862.107,884.794,0.000,0.000
1509076512.566,871.428,808.165,860.873,860.188,0.000,0.000
1509076512.581,822.353,804.601,851.140,813.032,0.000,0.000
1509076512.581,769.782,802.134,836.198,764.847,0.000,0.000
1509076512.581,752.647,800.763,826.191,757.308,0.000,0.000
1509076512.581,755.731,807.068,827.905,767.863,0.000,0.000
1509076512.581,781.571,816.938,835.307,789.728,0.000,0.000
1509076512.581,825.369,823.039,842.161,836.678,0.000,0.000
1509076512.581,869.098,824.958,850.249,881.709,0.000,0.000
1509076512.603,912.279,827.631,858.611,914.541,0.000,0.000
1509076512.603,927.426,828.796,860.119,914.335,0.000,0.000
1509076512.603,905.013,822.147,855.116,890.140,0.000,0.000
1509076512.603,848.467,817.007,846.274,836.952,0.000,0.000
1509076512.603,798.706,814.334,833.251,793.703,0.000,0.000
1509076512.603,771.359,812.415,832.223,771.564,0.000,0.000
1509076512.603,781.983,810.633,829.961,786.780,0.000,0.000
1509076512.603,809.879,813.717,830.578,813.169,0.000,0.000
1509076512.603,845.863,820.571,839.146,853.471,0.000,0.000
1509076512.603,887.193,821.051,851.277,894.390,0.000,0.000
1509076512.614,931.950,818.378,861.696,927.015,0.000,0.000
1509076512.614,941.134,817.624,864.574,924.410,0.000,0.000
1509076512.614,907.412,817.555,859.160,897.748,0.000,0.000
1509076512.614,862.381,816.596,844.629,857.446,0.000,0.000
1509076512.614,809.125,808.919,834.553,808.302,0.000,0.000
1509076512.614,782.325,800.009,832.086,793.840,0.000,0.000
1509076512.614,791.715,800.214,832.771,806.040,0.000,0.000
1509076512.633,821.599,807.754,835.444,829.824,0.000,0.000
1509076512.633,858.200,814.814,844.286,869.029,0.000,0.000
1509076512.633,906.795,820.708,849.564,911.799,0.000,0.000
1509076512.633,951.073,829.002,859.845,942.231,0.000,0.000
1509076512.633,955.734,831.263,866.082,940.792,0.000,0.000
1509076512.633,920.778,828.042,865.671,914.403,0.000,0.000
1509076512.633,876.912,820.023,852.374,874.924,0.000,0.000
1509076512.633,823.313,815.979,839.077,825.780,0.000,0.000
1509076512.633,799.735,810.633,833.662,808.919,0.000,0.000
1509076512.648,802.476,810.016,833.183,820.023,0.000,0.000
1509076512.648,830.921,815.362,837.638,844.423,0.000,0.000
1509076512.648,870.606,817.281,843.258,887.535,0.000,0.000
1509076512.648,907.412,820.845,851.620,916.597,0.000,0.000
1509076512.648,947.440,826.808,858.337,940.518,0.000,0.000
1509076512.648,957.516,829.550,863.409,943.876,0.000,0.000
1509076512.648,927.358,824.752,858.200,923.451,0.000,0.000
1509076512.666,875.815,819.132,847.439,872.456,0.000,0.000
1509076512.666,822.833,814.402,837.843,826.534,0.000,0.000
1509076512.666,801.996,812.620,830.647,817.898,0.000,0.000
1509076512.666,802.613,813.923,831.743,828.179,0.000,0.000
1509076512.666,832.292,815.499,832.977,851.826,0.000,0.000
1509076512.666,859.228,817.350,843.601,878.145,0.000,0.000
1509076512.666,901.312,815.293,852.305,916.734,0.000,0.000
1509076512.666,949.222,811.318,858.817,952.581,0.000,0.000
1509076512.666,960.669,807.685,861.421,957.036,0.000,0.000
1509076512.666,931.402,809.399,857.994,931.059,0.000,0.000
1509076512.681,882.532,814.334,848.741,875.335,0.000,0.000
1509076512.681,834.759,813.991,838.871,831.949,0.000,0.000
1509076512.681,816.321,813.306,829.550,830.989,0.000,0.000
1509076512.681,813.648,816.047,830.784,837.226,0.000,0.000
1509076512.681,839.351,819.680,835.650,851.209,0.000,0.000
1509076512.681,877.323,819.200,842.298,886.370,0.000,0.000
1509076512.681,915.911,819.817,852.031,927.906,0.000,0.000
1509076512.699,956.076,825.986,859.845,956.967,0.000,0.000
1509076512.699,962.588,832.360,862.107,952.923,0.000,0.000
1509076512.699,934.554,832.908,854.704,927.975,0.000,0.000
1509076512.699,881.367,830.030,846.137,874.376,0.000,0.000
1509076512.699,831.675,822.147,833.388,828.727,0.000,0.000
1509076512.699,797.062,818.789,830.509,809.262,0.000,0.000
1509076512.699,812.141,818.857,828.933,827.082,0.000,0.000
1509076512.699,845.726,819.886,832.154,852.443,0.000,0.000
1509076512.699,881.778,819.680,838.460,889.318,0.000,0.000
1509076512.715,922.697,822.764,846.205,927.632,0.000,0.000
1509076512.715,968.002,822.970,855.047,956.830,0.000,0.000
1509076512.715,984.178,810.701,857.377,965.192,0.000,0.000
1509076512.715,942.300,809.742,856.212,927.975,0.000,0.000
1509076512.715,890.209,816.459,844.697,872.388,0.000,0.000
1509076512.715,841.407,823.381,835.924,823.930,0.000,0.000
1509076512.715,825.712,825.232,829.618,822.490,0.000,0.000
1509076512.715,824.683,825.917,830.030,835.993,0.000,0.000
1509076512.733,849.769,826.260,834.005,858.954,0.000,0.000
1509076512.733,880.818,829.824,842.436,895.418,0.000,0.000
1509076512.733,927.769,832.566,848.124,935.377,0.000,0.000
1509076512.733,965.672,834.142,857.103,957.241,0.000,0.000
1509076512.733,973.349,833.799,858.748,958.818,0.000,0.000
1509076512.733,933.938,835.170,857.240,926.330,0.000,0.000
1509076512.733,881.024,835.239,846.000,869.167,0.000,0.000
1509076512.733,827.699,829.139,835.170,821.873,0.000,0.000
1509076512.733,804.601,820.228,829.550,813.443,0.000,0.000
1509076512.746,813.511,819.200,831.058,826.260,0.000,0.000
1509076512.746,843.121,824.272,834.416,849.495,0.000,0.000
1509076512.746,879.927,823.792,839.351,890.209,0.000,0.000
1509076512.746,915.911,826.123,851.277,921.943,0.000,0.000
1509076512.746,953.403,830.372,860.393,947.646,0.000,0.000
1509076512.746,961.011,835.170,863.752,947.303,0.000,0.000
1509076512.746,925.370,830.372,857.994,920.024,0.000,0.000
1509076512.766,875.267,823.861,846.891,869.715,0.000,0.000
1509076512.766,829.687,808.097,837.295,825.095,0.000,0.000
1509076512.766,812.689,789.659,829.893,820.914,0.000,0.000
1509076512.766,811.866,797.404,830.030,826.671,0.000,0.000
1509076512.766,830.921,817.144,836.335,841.613,0.000,0.000
1509076512.766,861.901,829.550,845.794,875.952,0.000,0.000
1509076512.766,905.493,837.295,851.483,914.883,0.000,0.000
1509076512.766,946.481,843.190,858.680,940.175,0.000,0.000
1509076512.766,950.456,843.806,860.667,939.147,0.000,0.000
1509076512.766,918.036,837.158,856.555,909.400,0.000,0.000
1509076512.780,867.864,827.836,845.588,862.861,0.000,0.000
1509076512.780,817.418,823.587,836.130,821.599,0.000,0.000
1509076512.780,798.844,817.624,828.933,815.293,0.000,0.000
1509076512.780,805.355,816.390,832.771,826.397,0.000,0.000
1509076512.780,830.852,821.051,840.311,845.863,0.000,0.000
1509076512.780,866.425,826.397,847.987,881.778,0.000,0.000
1509076512.780,914.335,832.497,855.527,922.765,0.000,0.000
1509076512.799,958.407,837.226,861.833,954.637,0.000,0.000
1509076512.799,962.588,839.351,865.534,951.484,0.000,0.000
1509076512.799,929.140,835.376,860.462,929.208,0.000,0.000
1509076512.799,870.400,825.986,849.495,873.005,0.000,0.000
1509076512.799,815.705,814.265,842.641,819.200,0.000,0.000
1509076512.799,795.279,803.299,838.871,801.448,0.000,0.000
1509076512.799,811.112,793.703,833.594,820.228,0.000,0.000
1509076512.799,832.840,800.694,835.719,843.464,0.000,0.000
1509076512.799,864.026,814.197,842.436,878.899,0.000,0.000
1509076512.815,907.207,829.550,850.660,913.170,0.000,0.000
1509076512.815,948.331,841.339,858.543,943.739,0.000,0.000
1509076512.815,959.709,843.464,858.611,949.291,0.000,0.000
1509076512.815,917.693,840.037,855.664,910.017,0.000,0.000
1509076512.815,861.147,833.594,845.314,849.701,0.000,0.000
1509076512.815,806.863,828.864,837.295,806.726,0.000,0.000
1509076512.815,792.538,822.422,832.566,805.149,0.000,0.000
1509076512.815,801.928,820.982,832.840,818.857,0.000,0.000
1509076512.839,830.784,821.325,836.678,843.327,0.000,0.000
1509076512.839,862.381,822.147,844.560,876.089,0.000,0.000
1509076512.839,911.113,823.313,851.072,912.484,0.000,0.000
1509076512.839,947.714,829.893,862.381,932.224,0.000,0.000
1509076512.839,951.553,832.977,864.437,933.663,0.000,0.000
1509076512.839,911.456,833.114,861.764,902.203,0.000,0.000
1509076512.839,867.659,826.466,850.866,860.256,0.000,0.000
1509076512.839,815.019,816.664,839.146,814.951,0.000,0.000
1509076512.839,793.360,815.293,834.896,807.960,0.000,0.000
1509076512.848,807.206,815.156,836.267,819.200,0.000,0.000
1509076512.848,845.314,814.402,838.871,847.987,0.000,0.000
1509076512.848,872.594,812.689,843.669,884.588,0.000,0.000
1509076512.848,898.502,810.290,854.430,912.005,0.000,0.000
1509076512.848,937.707,816.527,865.671,933.801,0.000,0.000
1509076512.848,952.101,820.571,863.341,945.110,0.000,0.000
1509076512.848,908.235,821.119,857.994,910.839,0.000,0.000
1509076512.890,852.511,820.365,849.221,850.455,0.000,0.000
1509076512.890,803.573,820.571,839.694,805.012,0.000,0.000
1509076512.890,791.236,820.640,833.799,804.670,0.000,0.000
1509076512.890,800.077,821.188,833.936,817.829,0.000,0.000
1509076512.890,833.183,824.958,837.501,843.601,0.000,0.000
1509076512.890,858.268,827.082,848.330,870.949,0.000,0.000
1509076512.890,902.272,829.481,855.732,907.549,0.000,0.000
1509076512.890,945.452,834.142,860.942,937.296,0.000,0.000
1509076512.890,947.303,835.924,864.300,933.526,0.000,0.000
1509076512.890,910.908,825.095,859.228,900.627,0.000,0.000
1509076512.893,860.325,817.213,847.782,849.769,0.000,0.000
1509076512.893,806.040,810.770,838.117,808.988,0.000,0.000
1509076512.893,787.809,809.467,834.211,808.097,0.000,0.000
1509076512.893,798.364,815.499,834.142,823.655,0.000,0.000
1509076512.893,829.344,820.503,836.541,846.685,0.000,0.000
1509076512.893,865.465,824.204,843.669,879.036,0.000,0.000
1509076512.893,907.549,827.836,850.455,904.396,0.000,0.000
1509076512.901,945.864,832.771,858.406,928.591,0.000,0.000
1509076512.902,946.344,830.098,860.873,928.866,0.000,0.000
1509076512.902,904.396,821.051,857.377,902.477,0.000,0.000
1509076512.902,848.810,817.213,845.520,847.576,0.000,0.000
1509076512.902,800.831,816.184,836.952,803.984,0.000,0.000
1509076512.902,782.188,813.717,834.211,793.155,0.000,0.000
1509076512.902,796.170,813.580,830.509,808.851,0.000,0.000
1509076512.902,827.082,819.269,832.977,830.578,0.000,0.000
1509076512.902,858.885,822.833,839.557,866.973,0.000,0.000
1509076512.902,897.063,827.562,850.798,902.614,0.000,0.000
1509076512.914,932.841,831.606,859.845,926.330,0.000,0.000
1509076512.914,932.635,831.812,864.232,923.725,0.000,0.000
1509076512.914,900.490,826.328,858.063,902.820,0.000,0.000
1509076512.914,849.632,820.571,848.056,845.040,0.000,0.000
1509076512.914,804.601,808.851,837.432,804.190,0.000,0.000
1509076512.914,783.216,805.218,837.021,797.404,0.000,0.000
1509076512.914,788.425,803.710,836.335,811.044,0.000,0.000
1509076512.933,818.035,809.467,839.831,835.102,0.000,0.000
1509076512.933,854.979,816.459,847.508,872.662,0.000,0.000
1509076512.933,902.889,820.023,854.499,904.945,0.000,0.000
1509076512.933,941.683,823.518,862.244,930.099,0.000,0.000
1509076512.933,925.987,830.235,866.425,914.952,0.000,0.000
1509076512.933,891.100,833.388,861.490,887.398,0.000,0.000
1509076512.933,849.153,828.179,847.782,846.274,0.000,0.000
1509076512.933,801.722,819.886,837.158,805.286,0.000,0.000
1509076512.933,787.603,810.221,835.444,799.872,0.000,0.000
1509076512.948,799.323,801.037,834.896,812.415,0.000,0.000
1509076512.948,824.615,808.234,838.255,836.335,0.000,0.000
1509076512.948,857.515,813.923,842.161,877.940,0.000,0.000
1509076512.948,896.651,823.518,851.277,907.001,0.000,0.000
1509076512.948,938.804,829.481,861.490,928.591,0.000,0.000
1509076512.948,941.820,833.662,862.244,923.245,0.000,0.000
1509076512.948,900.764,827.973,855.938,889.592,0.000,0.000
1509076512.948,845.657,822.010,843.258,831.263,0.000,0.000
1509076512.963,800.763,814.814,834.416,793.909,0.000,0.000
1509076512.963,786.301,808.782,830.784,795.211,0.000,0.000
1509076512.963,802.819,813.169,829.276,815.362,0.000,0.000
1509076512.963,829.413,817.350,833.045,834.005,0.000,0.000
1509076512.963,854.293,818.104,846.891,861.970,0.000,0.000
1509076512.963,899.667,821.873,855.321,900.627,0.000,0.000
1509076512.963,946.138,823.313,863.478,932.841,0.000,0.000
1509076512.983,949.359,828.111,865.054,928.797,0.000,0.000
1509076512.983,904.534,827.836,858.200,898.296,0.000,0.000
1509076512.983,855.321,825.575,843.669,850.455,0.000,0.000
1509076512.983,805.012,820.297,835.993,807.206,0.000,0.000
1509076512.983,783.833,814.951,835.787,796.787,0.000,0.000
1509076512.983,792.195,812.757,841.065,804.464,0.000,0.000
1509076512.983,829.139,816.527,843.121,838.117,0.000,0.000
1509076512.983,864.643,815.430,846.754,884.520,0.000,0.000
1509076512.983,908.235,824.478,855.321,917.899,0.000,0.000
1509076512.983,947.166,835.444,862.861,939.147,0.000,0.000
1509076512.996,941.751,836.404,863.889,929.894,0.000,0.000
1509076512.997,900.627,830.852,858.748,895.897,0.000,0.000
1509076512.997,855.801,820.160,845.040,845.726,0.000,0.000
1509076512.997,803.504,811.524,839.420,799.186,0.000,0.000
1509076512.997,782.188,809.604,837.021,787.603,0.000,0.000
1509076512.997,794.114,811.387,836.404,801.722,0.000,0.000
1509076512.997,824.409,815.499,839.625,824.821,0.000,0.000
1509076513.016,858.474,822.216,847.302,862.587,0.000,0.000
1509076513.016,903.231,823.724,856.075,897.680,0.000,0.000
1509076513.016,950.182,825.095,861.079,927.152,0.000,0.000
1509076513.016,945.247,825.780,862.998,916.871,0.000,0.000
1509076513.016,901.518,825.986,862.244,881.230,0.000,0.000
1509076513.016,842.915,826.397,853.608,820.982,0.000,0.000
1509076513.016,802.476,818.515,840.585,791.784,0.000,0.000
1509076513.016,789.042,814.608,836.061,793.840,0.000,0.000
1509076513.016,803.162,814.608,836.815,814.882,0.000,0.000
1509076513.016,848.056,819.132,836.815,845.451,0.000,0.000
1509076513.030,893.773,819.749,845.040,891.511,0.000,0.000
1509076513.030,938.804,823.930,855.390,932.156,0.000,0.000
1509076513.030,975.747,833.457,861.696,962.382,0.000,0.000
1509076513.030,946.686,835.650,867.316,934.966,0.000,0.000
1509076513.030,879.996,829.276,863.615,873.622,0.000,0.000
1509076513.030,819.611,825.369,850.249,810.701,0.000,0.000
1509076513.030,776.705,819.817,836.678,774.100,0.000,0.000
1509076513.049,771.701,814.608,832.771,777.048,0.000,0.000
1509076513.049,793.497,816.047,835.102,806.246,0.000,0.000
1509076513.049,831.126,816.184,839.283,843.806,0.000,0.000
1509076513.049,863.478,816.321,851.003,884.520,0.000,0.000
1509076513.049,899.599,821.668,862.312,909.606,0.000,0.000
1509076513.049,933.595,828.042,870.332,926.809,0.000,0.000
1509076513.049,936.268,827.768,868.070,932.361,0.000,0.000
1509076513.049,901.449,822.833,861.833,903.163,0.000,0.000
1509076513.049,852.511,816.184,852.648,850.318,0.000,0.000
1509076513.063,802.682,808.165,842.710,803.162,0.000,0.000
1509076513.063,787.055,803.367,839.283,796.376,0.000,0.000
1509076513.063,805.835,805.561,837.158,818.926,0.000,0.000
1509076513.063,831.126,812.483,844.081,843.121,0.000,0.000
1509076513.063,865.808,810.907,853.059,883.492,0.000,0.000
1509076513.063,910.839,813.306,862.312,913.375,0.000,0.000
1509076513.063,947.440,814.402,869.235,937.022,0.000,0.000
1509076513.084,933.732,814.402,871.634,930.853,0.000,0.000
1509076513.084,888.289,813.854,866.699,900.147,0.000,0.000
1509076513.084,845.931,812.278,852.374,856.007,0.000,0.000
1509076513.084,800.557,813.717,843.121,812.963,0.000,0.000
1509076513.084,782.736,811.935,843.464,803.641,0.000,0.000
1509076513.084,791.715,811.249,846.754,808.097,0.000,0.000
1509076513.084,831.812,818.241,847.233,839.214,0.000,0.000
1509076513.084,867.796,822.764,853.196,884.657,0.000,0.000
1509076513.084,909.811,830.441,863.203,918.036,0.000,0.000
1509076513.084,946.138,838.460,870.743,941.134,0.000,0.000
1509076513.084,937.844,838.392,871.086,932.224,0.000,0.000
1509076513.099,899.462,834.828,865.123,898.913,0.000,0.000
1509076513.099,849.084,830.989,851.894,843.875,0.000,0.000
1509076513.099,804.944,818.926,840.105,811.729,0.000,0.000
1509076513.099,791.921,811.387,838.597,803.162,0.000,0.000
1509076513.099,805.355,814.265,840.242,811.661,0.000,0.000
1509076513.099,834.759,817.075,843.190,834.485,0.000,0.000
1509076513.115,873.073,816.870,852.580,876.775,0.000,0.000
1509076513.115,919.887,817.555,861.970,913.924,0.000,0.000
1509076513.115,948.537,819.817,871.086,934.280,0.000,0.000
1509076513.115,938.873,823.724,869.989,929.894,0.000,0.000
1509076513.115,890.346,821.256,862.381,887.810,0.000,0.000
1509076513.115,838.117,812.894,849.975,831.538,0.000,0.000
1509076513.115,794.046,802.408,841.065,796.102,0.000,0.000
1509076513.115,780.954,799.598,838.323,795.142,0.000,0.000
1509076513.115,799.392,810.290,841.133,810.358,0.000,0.000
1509076513.133,838.117,817.487,844.423,837.980,0.000,0.000
1509076513.133,868.687,822.079,853.402,875.609,0.000,0.000
1509076513.133,910.085,830.784,860.462,917.008,0.000,0.000
1509076513.133,941.820,835.856,866.082,937.159,0.000,0.000
1509076513.133,928.112,835.719,866.973,918.516,0.000,0.000
1509076513.133,881.778,834.416,863.752,876.089,0.000,0.000
1509076513.133,833.799,828.933,850.386,827.905,0.000,0.000
1509076513.133,790.345,820.434,839.420,795.142,0.000,0.000
1509076513.133,780.612,817.281,837.364,796.787,0.000,0.000
1509076513.146,797.541,817.692,838.666,811.181,0.000,0.000
1509076513.146,827.905,817.418,843.806,833.388,0.000,0.000
1509076513.146,866.973,810.701,852.717,879.448,0.000,0.000
1509076513.146,909.880,813.717,862.175,910.222,0.000,0.000
1509076513.146,934.829,822.422,868.550,928.317,0.000,0.000
1509076513.146,922.149,827.905,869.167,914.541,0.000,0.000
1509076513.146,877.734,822.559,860.805,875.061,0.000,0.000
1509076513.166,825.575,817.898,848.810,820.434,0.000,0.000
1509076513.166,786.164,812.003,839.900,791.715,0.000,0.000
1509076513.166,783.285,799.940,833.662,798.981,0.000,0.000
1509076513.166,793.634,796.582,837.295,810.496,0.000,0.000
1509076513.166,815.019,807.343,843.532,827.357,0.000,0.000
1509076513.166,846.479,823.313,851.209,862.038,0.000,0.000
1509076513.166,896.377,832.771,857.583,902.477,0.000,0.000
1509076513.166,931.333,839.009,864.985,925.576,0.000,0.000
1509076513.166,919.750,840.311,865.465,914.472,0.000,0.000
1509076513.166,874.581,833.251,857.515,877.940,0.000,0.000
1509076513.186,820.228,827.014,846.822,822.353,0.000,0.000
1509076513.186,777.527,819.132,838.049,789.591,0.000,0.000
1509076513.186,776.431,812.278,833.799,792.401,0.000,0.000
1509076513.186,792.881,813.717,836.747,805.081,0.000,0.000
1509076513.186,816.870,817.144,840.654,832.292,0.000,0.000
1509076513.186,848.467,822.696,849.632,866.973,0.000,0.000
1509076513.203,897.542,823.381,857.309,897.680,0.000,0.000
1509076513.203,934.006,827.151,868.138,921.532,0.000,0.000
1509076513.203,920.983,831.538,869.646,916.528,0.000,0.000
1509076513.203,880.133,829.413,860.667,884.451,0.000,0.000
1509076513.203,829.961,822.970,848.673,828.248,0.000,0.000
1509076513.203,783.422,812.620,839.625,787.877,0.000,0.000
1509076513.203,775.334,802.888,837.226,791.441,0.000,0.000
1509076513.203,789.865,797.404,838.323,805.835,0.000,0.000
1509076513.203,815.842,807.891,842.573,826.808,0.000,0.000
1509076513.203,858.337,816.253,852.168,870.126,0.000,0.000
1509076513.203,907.961,826.191,859.639,902.203,0.000,0.000
1509076513.214,937.090,834.896,865.877,922.286,0.000,0.000
1509076513.214,919.887,835.856,864.780,912.484,0.000,0.000
1509076513.214,876.912,836.335,857.515,874.513,0.000,0.000
1509076513.214,832.634,833.662,843.258,827.014,0.000,0.000
1509076513.214,786.232,827.631,836.678,788.288,0.000,0.000
1509076513.214,770.468,824.204,835.513,781.297,0.000,0.000
1509076513.233,788.357,825.163,836.884,796.308,0.000,0.000
1509076513.233,824.067,827.219,841.202,824.272,0.000,0.000
1509076513.233,860.325,825.300,850.660,866.493,0.000,0.000
1509076513.233,905.630,828.933,858.406,905.288,0.000,0.000
1509076513.233,936.474,832.292,865.877,925.644,0.000,0.000
1509076513.233,915.637,832.908,869.098,909.057,0.000,0.000
1509076513.233,874.170,825.712,861.901,872.662,0.000,0.000
1509076513.233,824.067,818.241,846.000,812.757,0.000,0.000
1509076513.233,780.475,816.321,834.690,774.443,0.000,0.000
1509076513.233,776.225,817.624,829.961,774.306,0.000,0.000
1509076513.246,798.501,818.995,833.731,792.332,0.000,0.000
1509076513.246,828.453,822.422,841.065,821.668,0.000,0.000
1509076513.246,866.288,817.075,847.028,871.017,0.000,0.000
1509076513.246,905.288,814.608,857.103,897.337,0.000,0.000
1509076513.246,931.744,818.515,865.739,916.939,0.000,0.000
1509076513.246,919.750,824.067,866.836,904.671,0.000,0.000
1509076513.246,875.815,822.970,858.337,866.562,0.000,0.000
1509076513.266,829.276,819.543,845.314,809.810,0.000,0.000
1509076513.266,787.192,816.870,835.033,774.923,0.000,0.000
1509076513.266,780.749,813.648,830.098,784.793,0.000,0.000
1509076513.266,793.360,813.306,833.594,803.641,0.000,0.000
1509076513.266,816.527,815.156,843.806,825.780,0.000,0.000
1509076513.266,844.972,824.615,854.841,862.655,0.000,0.000
1509076513.266,894.595,832.634,858.954,905.493,0.000,0.000
1509076513.266,925.576,839.557,862.724,921.395,0.000,0.000
1509076513.266,912.416,837.706,863.615,906.590,0.000,0.000
1509076513.266,867.796,829.618,859.639,869.304,0.000,0.000
1509076513.278,814.539,818.652,847.987,816.801,0.000,0.000
1509076513.278,774.306,812.620,838.940,786.026,0.000,0.000
1509076513.278,772.935,813.237,835.924,798.021,0.000,0.000
1509076513.278,787.603,818.652,838.940,811.524,0.000,0.000
1509076513.278,812.346,822.627,846.274,830.784,0.000,0.000
1509076513.278,851.894,825.163,854.088,870.606,0.000,0.000
1509076513.300,901.449,827.357,863.272,910.565,0.000,0.000
1509076513.300,936.131,825.643,869.029,934.417,0.000,0.000
1509076513.300,921.737,817.829,864.369,919.407,0.000,0.000
1509076513.300,870.332,815.842,855.116,859.160,0.000,0.000
1509076513.300,818.652,821.188,843.875,802.888,0.000,0.000
1509076513.300,775.266,823.998,837.912,765.944,0.000,0.000
1509076513.300,773.895,823.930,833.525,776.499,0.000,0.000
1509076513.300,795.005,822.285,832.154,794.114,0.000,0.000
1509076513.300,824.958,825.163,837.912,820.434,0.000,0.000
1509076513.300,866.082,826.397,850.318,860.805,0.000,0.000
1509076513.300,913.512,823.381,859.091,899.050,0.000,0.000
1509076513.313,942.574,828.590,864.985,920.504,0.000,0.000
1509076513.313,919.133,828.659,861.490,905.562,0.000,0.000
1509076513.313,874.307,822.764,850.181,870.949,0.000,0.000
1509076513.313,819.886,820.982,839.283,808.165,0.000,0.000
1509076513.313,773.552,820.297,833.936,768.274,0.000,0.000
1509076513.313,762.517,815.979,828.248,767.315,0.000,0.000
1509076513.333,785.615,821.668,832.086,785.410,0.000,0.000
1509076513.333,825.575,828.659,840.105,818.857,0.000,0.000
1509076513.333,863.752,827.494,845.520,868.755,0.000,0.000
1509076513.333,903.026,831.949,854.499,900.490,0.000,0.000
1509076513.333,928.454,835.307,862.587,915.020,0.000,0.000
1509076513.333,906.658,835.239,864.369,896.103,0.000,0.000
1509076513.333,868.138,830.372,855.253,860.805,0.000,0.000
1509076513.333,819.132,820.571,841.407,813.237,0.000,0.000
1509076513.333,780.406,809.262,834.485,780.612,0.000,0.000
1509076513.333,776.911,809.125,833.662,785.272,0.000,0.000
1509076513.346,795.622,813.717,834.965,805.149,0.000,0.000
1509076513.346,823.998,812.894,841.270,830.372,0.000,0.000
1509076513.346,865.671,814.402,846.822,875.061,0.000,0.000
1509076513.346,910.908,825.506,856.624,902.135,0.000,0.000
1509076513.346,937.296,832.703,862.861,918.790,0.000,0.000
1509076513.346,917.899,831.195,862.587,905.150,0.000,0.000
1509076513.346,870.469,825.643,854.019,866.768,0.000,0.000
1509076513.365,816.116,819.543,842.710,812.278,0.000,0.000
1509076513.365,777.185,809.673,835.856,782.120,0.000,0.000
1509076513.365,773.483,804.875,831.195,792.058,0.000,0.000
1509076513.365,792.469,811.181,834.553,807.960,0.000,0.000
1509076513.365,819.886,814.608,844.012,834.896,0.000,0.000
1509076513.365,852.785,817.898,855.184,868.070,0.000,0.000
1509076513.365,903.574,822.353,860.051,906.384,0.000,0.000
1509076513.365,930.373,829.893,866.082,922.628,0.000,0.000
1509076513.365,913.855,831.743,865.602,911.730,0.000,0.000
1509076513.380,868.070,827.288,857.515,869.783,0.000,0.000
1509076513.380,813.443,820.023,843.601,812.003,0.000,0.000
1509076513.380,784.930,808.576,835.719,793.977,0.000,0.000
1509076513.380,778.693,805.424,837.295,792.127,0.000,0.000
1509076513.380,794.320,810.975,838.392,803.093,0.000,0.000
1509076513.380,818.104,819.269,844.423,827.768,0.000,0.000
1509076513.380,853.745,821.736,851.963,874.581,0.000,0.000
1509076513.380,899.804,821.462,858.885,909.606,0.000,0.000
1509076513.398,931.402,825.986,863.889,923.451,0.000,0.000
1509076513.398,914.541,824.958,863.272,909.948,0.000,0.000
1509076513.398,869.920,821.531,851.757,870.263,0.000,0.000
1509076513.398,814.334,821.805,842.778,809.742,0.000,0.000
1509076513.398,766.904,818.995,835.376,768.274,0.000,0.000
1509076513.398,759.158,820.160,835.170,772.387,0.000,0.000
1509076513.398,784.724,821.119,834.485,799.735,0.000,0.000
1509076513.398,817.898,819.337,838.597,824.615,0.000,0.000
1509076513.398,854.156,816.870,846.411,859.160,0.000,0.000
1509076513.414,900.832,818.104,857.994,898.022,0.000,0.000
1509076513.414,931.607,822.490,862.449,918.516,0.000,0.000
1509076513.414,914.266,822.970,858.885,898.639,0.000,0.000
1509076513.414,862.724,823.930,852.580,849.084,0.000,0.000
1509076513.414,798.227,821.736,842.367,788.425,0.000,0.000
1509076513.414,766.150,817.144,831.812,770.193,0.000,0.000
1509076513.414,767.520,815.705,830.921,778.076,0.000,0.000
1509076513.414,790.276,818.995,831.949,796.445,0.000,0.000
1509076513.430,823.998,817.898,836.473,823.724,0.000,0.000
1509076513.430,864.985,814.608,846.959,861.764,0.000,0.000
1509076513.430,915.020,817.555,853.196,905.219,0.000,0.000
1509076513.430,941.683,825.232,860.256,920.092,0.000,0.000
1509076513.430,918.310,828.111,859.297,896.377,0.000,0.000
1509076513.430,869.304,831.058,852.305,849.016,0.000,0.000
1509076513.430,818.583,829.139,838.049,796.445,0.000,0.000
1509076513.430,782.599,824.067,829.687,770.125,0.000,0.000
1509076513.448,778.555,820.640,830.304,777.185,0.000,0.000
1509076513.448,796.170,812.963,827.905,792.812,0.000,0.000
1509076513.448,829.344,809.879,830.235,825.643,0.000,0.000
1509076513.448,864.780,818.378,844.218,866.699,0.000,0.000
1509076513.448,904.054,829.344,859.502,895.075,0.000,0.000
1509076513.448,930.785,838.323,866.219,907.412,0.000,0.000
1509076513.448,915.363,835.239,862.861,901.038,0.000,0.000
1509076513.448,866.562,825.986,853.813,858.337,0.000,0.000
1509076513.480,810.564,816.116,839.900,802.682,0.000,0.000
1509076513.480,768.823,807.960,830.921,775.677,0.000,0.000
1509076513.480,766.150,804.053,828.796,783.833,0.000,0.000
1509076513.480,788.083,809.056,830.784,797.747,0.000,0.000
1509076513.480,822.901,815.705,837.501,823.176,0.000,0.000
1509076513.480,853.196,820.777,848.330,853.059,0.000,0.000
1509076513.480,901.107,821.256,854.704,893.704,0.000,0.000
1509076513.480,928.317,822.285,859.228,908.715,0.000,0.000
1509076513.480,909.811,823.587,856.624,891.168,0.000,0.000
1509076513.484,865.671,823.381,850.455,851.757,0.000,0.000
1509076513.484,814.814,820.160,835.993,803.504,0.000,0.000
1509076513.484,788.631,812.209,825.232,790.756,0.000,0.000
1509076513.484,785.889,809.879,827.836,798.158,0.000,0.000
1509076513.484,795.279,818.104,836.198,806.452,0.000,0.000
1509076513.484,828.453,824.341,838.255,838.940,0.000,0.000
1509076513.484,855.938,825.643,844.012,865.945,0.000,0.000
1509076513.484,899.187,826.466,850.249,893.293,0.000,0.000
1509076513.498,924.273,828.385,855.870,904.876,0.000,0.000
1509076513.498,902.752,830.784,853.745,884.725,0.000,0.000
1509076513.498,866.219,825.917,844.012,844.697,0.000,0.000
1509076513.498,819.611,820.708,836.267,794.937,0.000,0.000
1509076513.498,801.105,820.571,834.965,792.743,0.000,0.000
1509076513.498,794.937,820.845,836.267,799.460,0.000,0.000
1509076513.498,797.336,819.680,839.146,803.847,0.000,0.000
1509076513.498,810.153,815.910,841.202,816.527,0.000,0.000
1509076513.498,819.817,819.269,842.847,832.154,0.000,0.000
1509076513.514,835.650,823.587,843.190,838.255,0.000,0.000
1509076513.514,851.140,823.107,843.601,844.149,0.000,0.000
1509076513.514,850.729,809.399,840.928,846.891,0.000,0.000
1509076513.514,841.476,804.053,840.037,832.497,0.000,0.000
1509076513.514,822.010,811.455,842.710,807.068,0.000,0.000
1509076513.514,819.611,820.777,840.996,810.084,0.000,0.000
1509076513.514,817.692,824.272,841.887,817.555,0.000,0.000
1509076513.514,824.821,823.244,842.710,824.272,0.000,0.000
1509076513.531,833.594,824.204,845.177,832.840,0.000,0.000
1509076513.531,840.654,827.014,847.096,844.012,0.000,0.000
1509076513.531,859.776,829.002,845.794,854.841,0.000,0.000
1509076513.531,870.674,829.687,845.109,853.059,0.000,0.000
1509076513.531,852.717,830.372,847.987,838.186,0.000,0.000
1509076513.531,838.940,829.276,847.028,830.921,0.000,0.000
1509076513.531,830.578,827.562,842.915,819.886,0.000,0.000
1509076513.531,824.821,823.176,842.504,819.680,0.000,0.000
1509076513.548,824.409,824.752,842.710,822.627,0.000,0.000
1509076513.548,828.179,824.478,842.093,824.067,0.000,0.000
1509076513.548,836.198,822.216,840.996,831.880,0.000,0.000
1509076513.548,843.669,824.683,843.121,843.327,0.000,0.000
1509076513.548,854.430,827.631,846.685,849.221,0.000,0.000
1509076513.548,858.131,820.777,849.906,849.632,0.000,0.000
1509076513.548,852.717,813.237,846.137,854.567,0.000,0.000
1509076513.548,844.012,811.387,843.806,833.731,0.000,0.000
1509076513.565,836.747,803.779,841.956,815.773,0.000,0.000
1509076513.565,824.683,802.956,839.900,815.362,0.000,0.000
1509076513.565,816.938,806.040,837.021,821.051,0.000,0.000
1509076513.565,827.973,819.749,841.270,824.615,0.000,0.000
1509076513.565,840.379,829.413,846.411,831.949,0.000,0.000
1509076513.565,840.379,830.647,850.660,833.457,0.000,0.000
1509076513.565,857.103,828.248,847.782,844.560,0.000,0.000
1509076513.565,869.098,825.026,848.056,847.233,0.000,0.000
1509076513.565,861.764,822.010,851.483,852.305,0.000,0.000
1509076513.580,846.274,824.478,849.084,841.819,0.000,0.000
1509076513.580,832.360,824.683,846.411,826.808,0.000,0.000
1509076513.580,828.316,821.599,844.286,828.933,0.000,0.000
1509076513.580,821.462,820.503,846.685,825.369,0.000,0.000
1509076513.580,828.042,821.531,844.218,821.599,0.000,0.000
1509076513.580,833.525,822.147,847.919,826.397,0.000,0.000
1509076513.580,841.407,820.640,849.769,841.819,0.000,0.000
1509076513.580,849.358,822.285,849.153,850.112,0.000,0.000
1509076513.596,852.854,821.462,848.330,847.028,0.000,0.000
1509076513.596,845.726,819.200,847.165,842.093,0.000,0.000
1509076513.596,847.028,822.079,844.149,838.940,0.000,0.000
1509076513.596,839.625,827.768,842.504,824.204,0.000,0.000
1509076513.596,822.422,823.107,844.697,815.293,0.000,0.000
1509076513.596,818.446,820.160,847.028,822.010,0.000,0.000
1509076513.596,832.292,816.321,846.068,835.033,0.000,0.000
1509076513.596,843.806,811.112,848.193,848.810,0.000,0.000
1509076513.615,853.882,807.754,851.620,861.147,0.000,0.000
1509076513.615,864.643,810.701,852.100,866.014,0.000,0.000
1509076513.615,873.622,814.471,848.262,870.949,0.000,0.000
1509076513.615,861.079,820.777,848.810,861.010,0.000,0.000
1509076513.615,841.407,826.808,849.290,841.065,0.000,0.000
1509076513.615,832.429,829.961,852.511,824.546,0.000,0.000
1509076513.615,838.186,828.659,848.193,831.332,0.000,0.000
1509076513.615,834.416,827.494,850.112,834.142,0.000,0.000
1509076513.615,838.186,827.014,851.552,835.102,0.000,0.000
1509076513.630,845.657,829.824,851.483,845.451,0.000,0.000
1509076513.630,850.455,827.768,853.128,857.994,0.000,0.000
1509076513.630,862.175,827.768,853.471,866.014,0.000,0.000
1509076513.630,859.022,831.400,854.225,856.761,0.000,0.000
1509076513.630,856.692,829.481,850.729,853.128,0.000,0.000
1509076513.630,841.750,830.647,851.757,837.501,0.000,0.000
1509076513.630,834.211,830.647,848.330,824.409,0.000,0.000
1509076513.630,828.864,829.893,849.084,827.082,0.000,0.000
1509076513.648,830.715,823.861,849.975,834.965,0.000,0.000
1509076513.648,842.093,823.724,848.947,835.924,0.000,0.000
1509076513.648,854.019,821.668,848.193,848.604,0.000,0.000
1509076513.648,855.390,823.792,852.991,859.639,0.000,0.000
1509076513.648,859.434,820.091,856.761,861.284,0.000,0.000
1509076513.648,865.191,813.580,857.720,858.200,0.000,0.000
1509076513.648,862.587,810.496,853.882,859.913,0.000,0.000
1509076513.648,855.047,813.443,851.414,850.592,0.000,0.000
1509076513.648,846.000,818.720,851.140,839.831,0.000,0.000
1509076513.663,835.856,822.353,847.096,832.977,0.000,0.000
1509076513.663,839.146,825.506,846.068,835.719,0.000,0.000
1509076513.663,849.153,829.550,844.286,838.871,0.000,0.000
1509076513.663,848.124,833.457,847.645,842.847,0.000,0.000
1509076513.663,845.588,836.267,851.963,843.052,0.000,0.000
1509076513.663,859.776,835.924,851.072,852.443,0.000,0.000
1509076513.663,869.098,834.348,851.483,855.184,0.000,0.000
1509076513.681,862.998,828.453,850.660,855.047,0.000,0.000
1509076513.681,849.358,827.219,849.427,847.987,0.000,0.000
1509076513.681,846.274,825.849,844.560,844.218,0.000,0.000
1509076513.681,837.775,823.655,847.370,835.513,0.000,0.000
1509076513.681,832.017,823.998,849.701,830.304,0.000,0.000
1509076513.681,835.239,830.715,853.471,826.740,0.000,0.000
1509076513.681,855.595,834.348,851.963,845.520,0.000,0.000
1509076513.681,863.683,832.840,851.140,856.555,0.000,0.000
1509076513.681,866.836,829.276,849.975,860.256,0.000,0.000
1509076513.696,864.232,825.026,849.358,859.502,0.000,0.000
1509076513.696,859.571,820.023,850.181,856.966,0.000,0.000
1509076513.696,855.595,816.664,847.028,850.935,0.000,0.000
1509076513.696,847.439,816.664,846.891,835.102,0.000,0.000
1509076513.696,840.242,810.907,846.891,834.348,0.000,0.000
1509076513.696,829.824,807.960,849.906,833.662,0.000,0.000
1509076513.696,841.750,811.935,850.798,838.871,0.000,0.000
1509076513.696,851.346,820.297,853.334,852.717,0.000,0.000
1509076513.715,854.910,824.958,852.648,861.970,0.000,0.000
1509076513.715,863.889,831.332,852.785,864.780,0.000,0.000
1509076513.715,875.472,831.606,847.987,869.989,0.000,0.000
1509076513.715,863.615,833.251,849.838,862.724,0.000,0.000
1509076513.715,849.153,835.239,849.838,845.588,0.000,0.000
1509076513.715,839.557,833.045,850.386,828.590,0.000,0.000
1509076513.715,840.722,825.232,846.068,835.581,0.000,0.000
1509076513.715,840.448,823.176,845.520,835.376,0.000,0.000
1509076513.715,850.181,823.518,844.629,834.622,0.000,0.000
1509076513.730,848.262,825.986,844.697,845.726,0.000,0.000
1509076513.730,846.548,826.740,846.274,853.471,0.000,0.000
1509076513.730,864.848,829.961,845.040,863.615,0.000,0.000
1509076513.730,860.188,828.864,846.205,853.882,0.000,0.000
1509076513.730,845.863,821.942,844.697,847.987,0.000,0.000
1509076513.730,833.525,818.104,845.383,834.485,0.000,0.000
1509076513.730,832.154,819.817,843.532,829.961,0.000,0.000
1509076513.730,830.372,822.764,842.573,830.235,0.000,0.000
1509076513.747,831.263,815.705,843.052,833.457,0.000,0.000
1509076513.747,835.239,813.237,843.121,835.376,0.000,0.000
1509076513.747,846.205,808.165,841.887,847.987,0.000,0.000
1509076513.747,852.237,810.975,844.903,860.188,0.000,0.000
1509076513.747,857.172,820.640,847.439,861.901,0.000,0.000
1509076513.747,860.051,829.893,848.604,854.430,0.000,0.000
1509076513.747,855.870,829.481,846.754,849.906,0.000,0.000
1509076513.747,845.520,830.098,845.726,838.803,0.000,0.000
1509076513.771,836.473,827.905,844.903,830.647,0.000,0.000
1509076513.771,831.538,825.575,844.492,835.033,0.000,0.000
1509076513.771,838.803,818.583,841.750,849.495,0.000,0.000
1509076513.771,843.190,820.434,845.314,849.084,0.000,0.000
1509076513.771,842.436,823.930,847.919,846.548,0.000,0.000
1509076513.771,846.822,828.727,849.632,843.943,0.000,0.000
1509076513.771,867.727,830.578,844.834,853.471,0.000,0.000
1509076513.771,873.964,831.949,844.766,853.334,0.000,0.000
1509076513.771,864.985,826.466,844.560,851.757,0.000,0.000
1509076513.781,853.128,822.833,843.806,840.311,0.000,0.000
1509076513.781,851.689,824.341,840.722,835.102,0.000,0.000
1509076513.781,842.710,823.655,837.569,842.093,0.000,0.000
1509076513.781,834.553,827.425,840.379,842.915,0.000,0.000
1509076513.781,837.158,831.400,845.246,835.993,0.000,0.000
1509076513.781,856.418,820.777,841.202,855.870,0.000,0.000
1509076513.781,855.184,813.785,842.847,854.773,0.000,0.000
1509076513.781,854.979,820.503,849.632,849.906,0.000,0.000
1509076513.796,860.188,829.139,848.947,852.580,0.000,0.000
1509076513.796,855.664,833.320,848.810,849.016,0.000,0.000
1509076513.796,853.196,833.662,843.395,842.504,0.000,0.000
1509076513.796,844.629,832.086,841.819,826.740,0.000,0.000
1509076513.796,840.242,832.017,843.395,831.880,0.000,0.000
1509076513.796,832.771,831.949,845.383,833.114,0.000,0.000
1509076513.796,841.202,831.126,845.931,837.295,0.000,0.000
1509076513.796,844.629,827.219,847.165,846.617,0.000,0.000
1509076513.815,851.346,823.724,850.112,857.720,0.000,0.000
1509076513.815,867.796,824.135,849.221,862.381,0.000,0.000
1509076513.815,882.601,823.450,845.588,869.852,0.000,0.000
1509076513.815,861.696,822.147,849.701,862.312,0.000,0.000
1509076513.815,840.174,825.095,849.769,846.205,0.000,0.000
1509076513.815,833.045,828.933,850.729,834.005,0.000,0.000
1509076513.815,839.762,828.179,846.617,844.149,0.000,0.000
1509076513.815,842.093,829.207,845.726,844.903,0.000,0.000
1509076513.815,844.286,829.687,846.685,847.370,0.000,0.000
1509076513.830,844.012,829.550,847.096,859.776,0.000,0.000
1509076513.830,853.950,830.852,846.891,868.070,0.000,0.000
1509076513.830,872.319,830.852,844.423,871.086,0.000,0.000
1509076513.830,873.896,825.575,846.617,860.188,0.000,0.000
1509076513.830,863.272,818.035,846.822,859.022,0.000,0.000
1509076513.830,846.754,819.474,847.028,846.479,0.000,0.000
1509076513.830,836.198,823.587,841.750,834.279,0.000,0.000
1509076513.830,831.332,828.590,840.996,834.485,0.000,0.000
1509076513.848,831.332,829.893,839.900,839.694,0.000,0.000
1509076513.848,841.133,829.618,841.065,839.625,0.000,0.000
1509076513.848,850.181,827.973,843.464,855.253,0.000,0.000
1509076513.848,852.991,829.413,846.754,864.026,0.000,0.000
1509076513.848,858.817,831.263,849.769,856.075,0.000,0.000
1509076513.848,865.602,831.606,848.536,853.402,0.000,0.000
1509076513.848,859.708,830.509,845.246,853.813,0.000,0.000
1509076513.848,854.225,828.179,845.520,844.560,0.000,0.000
1509076513.864,846.822,823.792,844.012,834.142,0.000,0.000
1509076513.864,840.311,815.225,844.286,834.622,0.000,0.000
1509076513.864,839.900,815.362,845.657,843.601,0.000,0.000
1509076513.864,840.174,818.583,846.411,840.928,0.000,0.000
1509076513.864,851.483,823.724,846.822,850.866,0.000,0.000
1509076513.864,854.362,826.945,850.112,850.523,0.000,0.000
1509076513.864,863.478,825.163,847.919,857.857,0.000,0.000
1509076513.864,864.506,820.434,846.274,856.007,0.000,0.000
1509076513.864,855.184,819.886,845.451,851.689,0.000,0.000
1509076513.880,847.919,823.313,843.190,840.448,0.000,0.000
1509076513.880,841.339,827.082,841.270,830.167,0.000,0.000
1509076513.880,844.423,828.659,839.625,837.295,0.000,0.000
1509076513.880,838.460,832.771,841.750,834.142,0.000,0.000
1509076513.880,834.142,831.949,844.560,825.575,0.000,0.000
1509076513.880,846.891,825.300,844.081,839.214,0.000,0.000
1509076513.880,860.188,825.026,843.258,853.882,0.000,0.000
1509076513.880,862.381,829.070,842.367,856.144,0.000,0.000
1509076513.896,854.499,832.154,842.161,852.717,0.000,0.000
1509076513.896,848.330,832.771,843.943,852.991,0.000,0.000
1509076513.896,849.769,830.030,840.311,846.685,0.000,0.000
1509076513.896,844.560,830.921,840.928,833.320,0.000,0.000
1509076513.896,828.522,835.307,842.984,825.575,0.000,0.000
1509076513.896,831.332,836.061,845.726,833.731,0.000,0.000
1509076513.896,843.943,829.344,845.657,835.376,0.000,0.000
1509076513.896,848.262,819.954,846.479,842.093,0.000,0.000
1509076513.914,855.321,814.334,845.246,851.346,0.000,0.000
1509076513.914,863.478,811.181,844.697,854.567,0.000,0.000
1509076513.914,863.957,810.016,842.710,859.160,0.000,0.000
1509076513.914,855.116,816.938,846.137,857.103,0.000,0.000
1509076513.914,850.044,829.207,848.056,841.133,0.000,0.000
1509076513.914,837.364,838.323,848.878,823.176,0.000,0.000
1509076513.914,835.307,836.404,844.560,836.198,0.000,0.000
1509076513.914,833.320,832.771,846.959,843.806,0.000,0.000
1509076513.914,841.202,831.126,845.931,840.928,0.000,0.000
1509076513.929,841.887,831.263,846.205,845.040,0.000,0.000
1509076513.929,846.754,830.167,846.137,850.660,0.000,0.000
1509076513.929,862.518,827.973,841.476,858.337,0.000,0.000
1509076513.929,859.982,828.179,841.682,850.523,0.000,0.000
1509076513.929,845.040,829.276,844.903,836.404,0.000,0.000
1509076513.929,843.738,830.989,842.984,830.784,0.000,0.000
1509076513.929,838.803,832.154,841.202,826.260,0.000,0.000
1509076513.949,833.114,830.167,840.311,828.179,0.000,0.000
1509076513.949,835.581,828.453,841.750,831.400,0.000,0.000
1509076513.949,851.277,828.385,839.694,841.476,0.000,0.000
1509076513.949,852.785,826.054,844.697,849.016,0.000,0.000
1509076513.949,859.913,830.852,845.588,857.926,0.000,0.000
1509076513.949,860.805,835.239,847.645,849.427,0.000,0.000
1509076513.949,865.397,829.550,844.218,856.692,0.000,0.000
1509076513.949,855.184,822.490,843.052,853.059,0.000,0.000
1509076513.949,845.794,818.857,839.831,839.283,0.000,0.000
1509076513.949,837.980,814.745,842.504,835.513,0.000,0.000
1509076513.962,834.348,810.016,846.548,841.613,0.000,0.000
1509076513.962,836.678,814.197,846.479,844.697,0.000,0.000
1509076513.962,851.963,818.241,841.339,849.016,0.000,0.000
1509076513.962,843.875,821.393,845.040,846.822,0.000,0.000
1509076513.962,846.754,827.562,848.878,851.483,0.000,0.000
1509076513.962,862.107,833.731,849.084,856.075,0.000,0.000
1509076513.962,867.179,836.473,849.564,856.898,0.000,0.000
1509076513.981,858.406,831.812,849.016,850.866,0.000,0.000
1509076513.981,845.451,826.740,847.645,837.569,0.000,0.000
1509076513.981,839.557,825.849,842.573,835.581,0.000,0.000
1509076513.981,839.420,825.780,845.931,835.444,0.000,0.000
1509076513.981,836.335,825.643,845.657,834.348,0.000,0.000
1509076513.981,833.936,830.167,849.838,828.727,0.000,0.000
1509076513.981,843.532,829.893,848.536,847.165,0.000,0.000
1509076513.981,851.209,830.372,847.508,854.088,0.000,0.000
1509076513.981,862.518,830.715,849.221,858.337,0.000,0.000
1509076513.998,861.079,827.288,851.209,860.667,0.000,0.000
1509076513.998,850.592,822.422,851.277,857.172,0.000,0.000
1509076513.998,850.798,821.942,848.741,844.423,0.000,0.000
1509076513.998,842.093,819.063,845.383,831.949,0.000,0.000
1509076513.998,838.049,816.253,845.314,835.376,0.000,0.000
1509076513.998,830.647,814.539,848.810,835.513,0.000,0.000
1509076513.998,830.784,816.596,848.878,839.214,0.000,0.000
1509076513.998,829.550,817.692,850.044,849.153,0.000,0.000
1509076514.012,850.729,821.942,848.947,855.253,0.000,0.000
1509076514.012,863.135,820.640,849.084,857.377,0.000,0.000
1509076514.012,861.079,820.640,847.233,856.144,0.000,0.000
1509076514.012,846.891,822.353,844.834,852.031,0.000,0.000
1509076514.012,840.585,825.986,844.355,841.887,0.000,0.000
1509076514.012,839.009,832.017,845.520,822.833,0.000,0.000
1509076514.012,837.843,834.005,845.794,830.715,0.000,0.000
1509076514.012,842.573,832.703,845.040,835.444,0.000,0.000
1509076514.030,853.334,834.074,845.109,843.464,0.000,0.000
1509076514.030,851.277,826.191,848.399,853.745,0.000,0.000
1509076514.030,860.736,821.119,844.903,866.425,0.000,0.000
1509076514.030,864.574,825.369,846.959,859.571,0.000,0.000
1509076514.030,860.256,827.699,847.919,853.471,0.000,0.000
1509076514.030,848.056,829.824,851.003,842.573,0.000,0.000
1509076514.030,851.209,832.017,844.423,838.940,0.000,0.000
1509076514.030,837.980,829.139,841.545,833.114,0.000,0.000
1509076514.030,829.207,822.490,840.585,833.799,0.000,0.000
1509076514.047,822.833,821.668,842.230,838.940,0.000,0.000
1509076514.047,840.654,819.886,844.355,844.766,0.000,0.000
1509076514.047,861.284,815.979,844.423,859.434,0.000,0.000
1509076514.047,862.449,813.991,845.588,859.639,0.000,0.000
1509076514.047,848.193,819.406,846.068,851.346,0.000,0.000
1509076514.047,840.242,826.260,848.878,848.947,0.000,0.000
1509076514.047,847.165,826.603,849.975,852.168,0.000,0.000
1509076514.047,851.277,829.618,847.370,838.460,0.000,0.000
1509076514.064,834.622,831.195,847.439,827.699,0.000,0.000
1509076514.064,814.265,829.481,847.302,831.606,0.000,0.000
1509076514.064,829.207,830.852,846.137,840.311,0.000,0.000
1509076514.064,854.499,831.743,846.137,845.726,0.000,0.000
1509076514.064,851.552,830.235,850.866,853.745,0.000,0.000
1509076514.064,849.838,832.154,854.499,851.894,0.000,0.000
1509076514.064,859.913,834.211,853.059,857.720,0.000,0.000
1509076514.064,856.555,833.183,852.580,857.994,0.000,0.000
1509076514.064,857.103,830.030,852.305,857.857,0.000,0.000
1509076514.079,856.692,829.893,849.564,845.109,0.000,0.000
1509076514.079,837.226,824.272,849.290,838.871,0.000,0.000
1509076514.079,825.917,818.583,847.165,844.834,0.000,0.000
1509076514.079,830.441,819.132,848.673,846.274,0.000,0.000
1509076514.079,845.040,826.534,851.689,843.669,0.000,0.000
1509076514.079,854.841,830.647,851.620,854.636,0.000,0.000
1509076514.079,859.982,825.300,851.003,857.926,0.000,0.000
1509076514.099,867.796,823.998,850.181,859.160,0.000,0.000
1509076514.099,860.599,818.926,850.592,858.543,0.000,0.000
1509076514.099,858.611,816.184,850.592,862.107,0.000,0.000
1509076514.099,858.954,819.200,850.181,838.803,0.000,0.000
1509076514.099,849.838,822.353,849.290,827.219,0.000,0.000
1509076514.099,832.566,826.054,854.156,824.135,0.000,0.000
1509076514.099,838.597,829.002,852.785,838.117,0.000,0.000
1509076514.099,846.342,832.566,849.975,845.931,0.000,0.000
1509076514.099,847.508,834.416,850.523,851.826,0.000,0.000
1509076514.099,861.010,835.444,851.277,856.898,0.000,0.000
1509076514.109,872.182,836.335,853.265,862.175,0.000,0.000
1509076514.109,876.295,837.295,851.620,861.216,0.000,0.000
1509076514.109,871.565,830.441,850.318,863.478,0.000,0.000
1509076514.109,856.966,829.550,850.798,852.168,0.000,0.000
1509076514.109,838.460,831.538,850.318,840.516,0.000,0.000
1509076514.109,833.936,832.292,850.935,840.791,0.000,0.000
1509076514.143,836.610,832.771,849.427,844.355,0.000,0.000
1509076514.143,837.021,830.030,847.713,844.081,0.000,0.000
1509076514.143,853.128,821.119,850.044,863.546,0.000,0.000
1509076514.143,865.054,822.079,854.430,870.811,0.000,0.000
1509076514.143,862.038,826.877,857.789,867.247,0.000,0.000
1509076514.143,856.075,831.538,856.966,864.574,0.000,0.000
1509076514.143,852.580,832.908,852.854,863.341,0.000,0.000
1509076514.143,847.782,833.457,849.084,852.785,0.000,0.000
1509076514.143,846.617,834.005,849.495,840.105,0.000,0.000
1509076514.143,848.810,833.183,850.112,836.952,0.000,0.000
1509076514.143,848.330,830.852,851.826,841.270,0.000,0.000
1509076514.159,851.757,825.369,852.991,844.355,0.000,0.000
1509076514.159,852.991,821.531,853.882,853.128,0.000,0.000
1509076514.159,866.082,821.325,852.168,867.179,0.000,0.000
1509076514.159,873.896,824.821,854.293,863.752,0.000,0.000
1509076514.159,870.126,827.973,852.648,858.337,0.000,0.000
1509076514.159,856.281,827.905,848.467,851.483,0.000,0.000
1509076514.166,851.757,830.030,847.850,838.323,0.000,0.000
1509076514.167,849.975,829.550,849.975,834.348,0.000,0.000
1509076514.167,840.311,831.743,849.906,832.908,0.000,0.000
1509076514.167,844.286,832.977,847.782,840.242,0.000,0.000
1509076514.167,854.499,835.170,850.935,842.161,0.000,0.000
1509076514.167,855.870,836.952,854.430,848.536,0.000,0.000
1509076514.167,861.558,835.102,853.059,858.611,0.000,0.000
1509076514.167,871.634,832.771,852.374,869.167,0.000,0.000
1509076514.167,866.356,823.244,850.455,866.288,0.000,0.000
1509076514.167,859.091,819.954,850.386,857.583,0.000,0.000
1509076514.167,857.994,825.986,849.495,837.706,0.000,0.000
1509076514.179,846.959,828.796,850.729,829.413,0.000,0.000
1509076514.179,827.219,829.755,852.100,830.509,0.000,0.000
1509076514.179,833.114,831.812,848.193,845.109,0.000,0.000
1509076514.179,850.318,831.880,851.003,843.258,0.000,0.000
1509076514.179,854.910,830.098,851.414,855.527,0.000,0.000
1509076514.179,865.328,827.288,852.374,864.848,0.000,0.000
1509076514.201,873.279,824.752,853.471,867.727,0.000,0.000
1509076514.201,864.026,823.998,858.543,854.979,0.000,0.000
1509076514.201,863.341,826.740,853.676,855.870,0.000,0.000
1509076514.201,855.253,832.223,851.414,834.348,0.000,0.000
1509076514.201,846.479,832.634,846.342,827.699,0.000,0.000
1509076514.201,830.030,831.538,849.084,827.082,0.000,0.000
1509076514.201,830.030,829.755,846.479,829.344,0.000,0.000
1509076514.201,849.221,828.316,846.959,834.759,0.000,0.000
1509076514.201,850.318,827.357,851.003,844.834,0.000,0.000
1509076514.212,860.873,827.082,850.729,860.256,0.000,0.000
1509076514.212,865.808,829.207,853.128,858.611,0.000,0.000
1509076514.212,866.151,827.836,851.209,853.402,0.000,0.000
1509076514.212,856.281,822.353,847.645,853.402,0.000,0.000
1509076514.212,842.436,825.849,850.866,832.017,0.000,0.000
1509076514.212,834.142,826.877,848.536,828.522,0.000,0.000
1509076514.212,832.086,828.864,851.277,832.360,0.000,0.000
1509076514.212,829.687,831.263,853.745,835.581,0.000,0.000
1509076514.230,843.601,830.784,854.019,842.504,0.000,0.000
1509076514.230,857.103,820.297,852.991,854.773,0.000,0.000
1509076514.230,869.441,816.253,849.153,866.288,0.000,0.000
1509076514.230,874.855,822.216,849.906,863.820,0.000,0.000
1509076514.230,867.042,826.808,852.374,860.667,0.000,0.000
1509076514.230,849.838,822.627,856.075,850.112,0.000,0.000
1509076514.230,856.692,818.926,848.947,843.601,0.000,0.000
1509076514.230,855.116,821.736,847.096,835.924,0.000,0.000
1509076514.230,847.165,820.914,846.274,835.170,0.000,0.000
1509076514.246,842.573,821.942,844.149,833.662,0.000,0.000
1509076514.246,851.826,826.397,846.411,837.501,0.000,0.000
1509076514.246,862.587,824.958,846.068,859.228,0.000,0.000
1509076514.246,865.191,826.397,847.782,863.546,0.000,0.000
1509076514.246,858.817,827.973,849.632,851.757,0.000,0.000
1509076514.246,854.841,825.300,849.016,845.657,0.000,0.000
1509076514.246,844.629,822.696,846.617,848.810,0.000,0.000
1509076514.246,847.508,821.188,844.766,835.924,0.000,0.000
1509076514.265,837.638,820.365,844.286,830.304,0.000,0.000
1509076514.265,829.824,821.942,846.548,833.594,0.000,0.000
1509076514.265,839.831,825.369,843.327,839.488,0.000,0.000
1509076514.265,855.184,829.893,846.205,838.186,0.000,0.000
1509076514.265,846.000,826.328,849.564,849.016,0.000,0.000
1509076514.265,855.390,821.736,852.443,858.680,0.000,0.000
1509076514.265,870.263,818.446,850.935,864.711,0.000,0.000
1509076514.265,865.260,823.176,848.467,859.434,0.000,0.000
1509076514.265,852.785,824.272,848.056,850.181,0.000,0.000
1509076514.279,849.084,825.643,844.834,832.086,0.000,0.000
1509076514.279,842.641,821.051,843.190,828.111,0.000,0.000
1509076514.279,842.847,818.035,842.230,834.005,0.000,0.000
1509076514.279,839.762,818.172,844.560,831.812,0.000,0.000
1509076514.279,842.367,823.930,845.863,837.501,0.000,0.000
1509076514.279,835.650,826.740,849.838,845.726,0.000,0.000
1509076514.279,850.523,827.562,848.330,850.455,0.000,0.000
1509076514.298,864.369,829.002,847.782,852.580,0.000,0.000
1509076514.298,866.014,825.986,847.919,853.196,0.000,0.000
1509076514.298,863.615,821.805,848.124,857.035,0.000,0.000
1509076514.298,849.495,823.518,847.987,831.263,0.000,0.000
1509076514.298,836.815,823.998,845.314,823.998,0.000,0.000
1509076514.298,833.320,825.917,849.221,822.490,0.000,0.000
1509076514.298,842.573,824.546,845.794,835.033,0.000,0.000
1509076514.298,838.666,824.067,844.423,840.242,0.000,0.000
1509076514.298,839.831,823.039,845.726,847.919,0.000,0.000
1509076514.298,858.611,820.228,847.165,856.418,0.000,0.000
1509076514.311,869.372,817.075,847.645,860.530,0.000,0.000
1509076514.311,868.344,819.611,846.068,854.979,0.000,0.000
1509076514.311,861.010,819.749,844.355,851.757,0.000,0.000
1509076514.311,855.458,823.861,842.230,834.074,0.000,0.000
1509076514.311,839.009,825.712,843.121,823.518,0.000,0.000
1509076514.311,836.335,825.643,842.710,826.740,0.000,0.000
1509076514.332,842.298,825.026,843.532,832.497,0.000,0.000
1509076514.332,847.165,826.808,843.875,836.404,0.000,0.000
1509076514.333,839.762,826.397,846.411,853.471,0.000,0.000
1509076514.333,850.523,825.506,847.508,855.253,0.000,0.000
1509076514.333,869.578,815.499,845.246,856.349,0.000,0.000
1509076514.333,860.736,809.399,848.536,844.492,0.000,0.000
1509076514.333,853.950,815.225,847.576,838.940,0.000,0.000
1509076514.333,857.240,820.640,841.682,830.784,0.000,0.000
1509076514.333,852.168,824.683,841.750,827.357,0.000,0.000
1509076514.333,846.754,826.945,843.943,829.893,0.000,0.000
1509076514.333,848.399,827.494,845.383,833.868,0.000,0.000
1509076514.344,855.390,831.400,846.822,836.267,0.000,0.000
1509076514.344,853.128,827.151,849.153,848.604,0.000,0.000
1509076514.344,867.316,820.434,850.592,865.602,0.000,0.000
1509076514.344,874.444,819.337,854.088,863.889,0.000,0.000
1509076514.344,867.042,819.200,851.757,859.639,0.000,0.000
1509076514.344,849.358,824.204,850.523,851.140,0.000,0.000
1509076514.364,835.170,828.727,847.645,834.074,0.000,0.000
1509076514.364,830.989,827.494,847.850,824.546,0.000,0.000
1509076514.364,847.576,824.821,845.109,831.332,0.000,0.000
1509076514.364,852.374,827.494,845.863,834.005,0.000,0.000
1509076514.364,845.520,829.344,850.249,829.687,0.000,0.000
1509076514.364,845.109,825.369,853.608,842.367,0.000,0.000
1509076514.364,868.550,819.063,850.249,863.478,0.000,0.000
1509076514.364,879.722,820.297,848.604,872.662,0.000,0.000
1509076514.364,875.883,823.381,849.084,868.687,0.000,0.000
1509076514.364,862.792,823.998,847.302,859.365,0.000,0.000
1509076514.379,856.418,823.930,845.726,840.242,0.000,0.000
1509076514.379,845.657,823.587,845.109,828.179,0.000,0.000
1509076514.379,841.339,821.873,842.573,833.183,0.000,0.000
1509076514.379,830.578,825.232,843.806,831.949,0.000,0.000
1509076514.379,835.444,829.139,846.205,829.618,0.000,0.000
1509076514.379,839.283,829.002,847.439,841.407,0.000,0.000
1509076514.379,845.451,828.590,846.959,846.479,0.000,0.000
1509076514.398,849.838,828.796,848.741,851.072,0.000,0.000
1509076514.398,851.620,827.973,849.427,850.866,0.000,0.000
1509076514.398,854.430,822.627,847.096,849.701,0.000,0.000
1509076514.398,845.863,823.176,847.165,829.755,0.000,0.000
1509076514.398,840.996,822.422,843.669,825.849,0.000,0.000
1509076514.398,829.961,824.204,847.850,822.970,0.000,0.000
1509076514.398,840.174,824.341,847.028,836.747,0.000,0.000
1509076514.398,848.673,823.724,847.302,843.258,0.000,0.000
1509076514.398,856.281,821.325,851.689,855.801,0.000,0.000
1509076514.398,865.671,819.063,851.072,861.833,0.000,0.000
1509076514.409,871.017,821.051,852.443,863.478,0.000,0.000
1509076514.409,866.082,818.995,851.414,860.462,0.000,0.000
1509076514.409,852.785,808.097,847.233,852.580,0.000,0.000
1509076514.409,848.124,808.097,847.850,834.553,0.000,0.000
1509076514.409,838.460,815.910,849.290,822.490,0.000,0.000
1509076514.409,834.690,820.160,850.044,831.126,0.000,0.000
1509076514.431,838.255,823.792,846.617,837.021,0.000,0.000
1509076514.431,852.648,829.413,848.878,838.460,0.000,0.000
1509076514.431,857.172,829.550,850.386,856.555,0.000,0.000
1509076514.431,857.515,830.372,849.906,859.091,0.000,0.000
1509076514.431,854.704,832.360,852.237,852.374,0.000,0.000
1509076514.431,853.265,833.388,851.689,846.754,0.000,0.000
1509076514.431,852.922,832.154,848.878,844.423,0.000,0.000
1509076514.431,846.411,829.207,845.863,834.279,0.000,0.000
1509076514.431,831.195,828.453,844.149,832.154,0.000,0.000
1509076514.431,832.977,826.740,844.629,834.279,0.000,0.000
1509076514.446,845.931,825.437,845.863,832.017,0.000,0.000
1509076514.446,846.822,826.260,848.262,834.485,0.000,0.000
1509076514.446,848.536,828.453,851.894,849.495,0.000,0.000
1509076514.446,857.652,825.095,851.757,857.035,0.000,0.000
1509076514.446,868.618,820.160,848.262,857.377,0.000,0.000
1509076514.446,861.764,813.580,849.427,847.782,0.000,0.000
1509076514.446,853.334,811.044,849.221,843.738,0.000,0.000
1509076514.446,846.548,816.116,846.411,827.905,0.000,0.000
1509076514.462,837.843,823.176,848.262,821.599,0.000,0.000
1509076514.462,833.936,820.640,850.044,823.792,0.000,0.000
1509076514.462,842.367,818.104,847.713,832.771,0.000,0.000
1509076514.462,843.875,822.833,850.592,831.263,0.000,0.000
1509076514.462,838.940,825.849,854.841,838.597,0.000,0.000
1509076514.462,840.516,828.590,855.116,843.875,0.000,0.000
1509076514.462,849.221,828.111,851.209,847.302,0.000,0.000
1509076514.462,846.754,827.836,851.620,845.314,0.000,0.000
1509076514.480,847.233,826.191,849.495,838.666,0.000,0.000
1509076514.480,841.956,826.054,848.741,826.191,0.000,0.000
1509076514.480,838.666,824.821,846.068,832.771,0.000,0.000
1509076514.480,840.311,822.490,849.016,832.086,0.000,0.000
1509076514.480,846.411,820.845,849.632,834.622,0.000,0.000
1509076514.480,840.928,819.200,848.399,836.884,0.000,0.000
1509076514.480,842.436,816.870,849.701,854.019,0.000,0.000
1509076514.480,856.898,819.611,852.854,862.038,0.000,0.000
1509076514.480,866.973,823.039,853.128,865.054,0.000,0.000
1509076514.501,867.179,821.119,856.075,866.219,0.000,0.000
1509076514.501,851.140,817.350,854.499,853.950,0.000,0.000
1509076514.501,843.738,816.321,848.262,838.117,0.000,0.000
1509076514.501,823.655,816.047,846.274,825.712,0.000,0.000
1509076514.501,807.480,815.979,846.754,819.817,0.000,0.000
1509076514.501,815.636,817.281,848.056,826.603,0.000,0.000
1509076514.501,831.400,817.075,848.124,835.581,0.000,0.000
1509076514.515,837.569,812.209,848.193,845.931,0.000,0.000
1509076514.515,846.891,810.770,847.919,850.181,0.000,0.000
1509076514.515,862.518,812.003,843.943,864.369,0.000,0.000
1509076514.515,855.527,815.293,845.383,865.739,0.000,0.000
1509076514.515,831.469,821.393,848.878,845.863,0.000,0.000
1509076514.515,825.437,821.805,849.016,830.167,0.000,0.000
1509076514.515,838.871,811.935,846.411,828.179,0.000,0.000
1509076514.515,839.009,809.262,847.645,835.650,0.000,0.000
1509076514.515,838.666,817.007,850.386,832.223,0.000,0.000
1509076514.515,845.520,818.583,848.810,837.226,0.000,0.000
1509076514.529,851.620,816.390,851.620,852.100,0.000,0.000
1509076514.529,860.805,817.418,850.592,858.406,0.000,0.000
1509076514.529,872.868,818.789,849.701,864.848,0.000,0.000
1509076514.529,863.752,818.789,852.580,860.462,0.000,0.000
1509076514.529,853.334,820.160,850.866,854.636,0.000,0.000
1509076514.529,846.000,820.434,850.523,834.142,0.000,0.000
1509076514.529,838.666,814.951,848.741,830.852,0.000,0.000
1509076514.546,833.457,817.350,849.838,835.719,0.000,0.000
1509076514.546,842.093,824.683,848.810,835.650,0.000,0.000
1509076514.546,854.841,828.179,845.246,846.548,0.000,0.000
1509076514.546,851.689,829.413,848.947,852.511,0.000,0.000
1509076514.546,861.284,828.385,848.056,859.160,0.000,0.000
1509076514.546,859.571,831.332,851.689,849.290,0.000,0.000
1509076514.546,861.353,827.905,847.919,853.196,0.000,0.000
1509076514.546,849.221,826.260,847.576,846.548,0.000,0.000
1509076514.546,846.205,817.624,844.355,836.610,0.000,0.000
1509076514.563,838.666,808.165,844.492,835.033,0.000,0.000
1509076514.563,830.921,806.931,844.697,836.335,0.000,0.000
1509076514.563,840.722,807.960,842.573,842.093,0.000,0.000
1509076514.563,859.022,813.785,844.972,839.146,0.000,0.000
1509076514.563,867.179,821.668,847.919,847.645,0.000,0.000
1509076514.563,866.836,830.372,849.016,852.443,0.000,0.000
1509076514.563,869.098,832.292,844.492,853.265,0.000,0.000
1509076514.563,856.829,827.357,846.137,846.205,0.000,0.000
1509076514.582,848.536,823.381,846.822,841.065,0.000,0.000
1509076514.582,850.386,824.478,844.834,829.002,0.000,0.000
1509076514.582,845.451,819.954,841.407,832.977,0.000,0.000
1509076514.582,833.731,820.777,845.657,830.509,0.000,0.000
1509076514.582,830.509,823.930,847.028,826.603,0.000,0.000
1509076514.582,836.678,828.453,850.318,827.494,0.000,0.000
1509076514.582,849.016,823.107,848.810,848.056,0.000,0.000
1509076514.582,860.736,822.216,851.346,854.636,0.000,0.000
1509076514.582,868.892,821.668,850.798,853.471,0.000,0.000
1509076514.595,856.212,816.801,850.181,850.592,0.000,0.000
1509076514.595,847.508,818.172,850.112,847.028,0.000,0.000
1509076514.595,847.645,822.285,847.782,839.625,0.000,0.000
1509076514.595,837.364,819.406,847.508,833.251,0.000,0.000
1509076514.595,834.759,817.281,848.124,838.392,0.000,0.000
1509076514.595,836.952,818.446,850.729,835.993,0.000,0.000
1509076514.595,846.479,814.128,850.935,845.588,0.000,0.000
1509076514.595,847.508,811.592,853.334,861.696,0.000,0.000
1509076514.613,859.365,814.402,853.265,868.207,0.000,0.000
1509076514.613,872.388,816.390,851.894,874.170,0.000,0.000
1509076514.613,863.478,819.680,851.209,866.082,0.000,0.000
1509076514.613,846.822,822.490,849.153,855.527,0.000,0.000
1509076514.613,845.931,826.397,849.838,830.304,0.000,0.000
1509076514.613,838.323,825.163,849.701,833.525,0.000,0.000
1509076514.613,827.082,821.325,847.987,841.407,0.000,0.000
1509076514.613,835.787,823.313,848.947,845.520,0.000,0.000
1509076514.629,854.430,827.357,850.455,852.100,0.000,0.000
1509076514.629,858.337,827.562,850.386,862.587,0.000,0.000
1509076514.629,876.226,825.917,847.645,873.827,0.000,0.000
1509076514.629,871.428,823.998,848.124,864.711,0.000,0.000
1509076514.629,858.406,822.079,849.701,860.599,0.000,0.000
1509076514.629,844.766,825.986,852.511,851.072,0.000,0.000
1509076514.629,847.576,820.845,846.411,841.133,0.000,0.000
1509076514.629,837.912,813.923,846.822,832.703,0.000,0.000
1509076514.648,831.400,807.274,846.754,834.622,0.000,0.000
1509076514.648,838.871,813.306,847.028,838.255,0.000,0.000
1509076514.648,852.854,815.499,845.383,853.539,0.000,0.000
1509076514.648,853.608,816.116,848.399,861.216,0.000,0.000
1509076514.648,857.377,823.861,849.975,859.845,0.000,0.000
1509076514.648,852.717,832.086,852.100,850.112,0.000,0.000
1509076514.648,854.499,831.880,849.221,858.680,0.000,0.000
1509076514.648,848.604,830.441,846.754,854.156,0.000,0.000
1509076514.648,849.975,830.235,844.492,840.105,0.000,0.000
1509076514.662,846.137,830.030,843.258,834.142,0.000,0.000
1509076514.662,841.956,826.877,842.298,840.996,0.000,0.000
1509076514.662,846.068,826.054,843.327,847.713,0.000,0.000
1509076514.662,848.741,822.970,843.738,852.580,0.000,0.000
1509076514.662,847.508,819.680,846.479,859.228,0.000,0.000
1509076514.662,849.153,821.531,849.838,857.172,0.000,0.000
1509076514.662,854.979,821.325,848.741,860.256,0.000,0.000
1509076514.662,854.156,814.951,847.987,862.038,0.000,0.000
1509076514.680,849.084,805.629,845.863,852.580,0.000,0.000
1509076514.680,844.834,808.165,842.778,835.856,0.000,0.000
1509076514.680,842.298,811.866,838.597,836.473,0.000,0.000
1509076514.680,832.497,818.720,842.710,831.606,0.000,0.000
1509076514.680,829.961,823.450,844.286,832.360,0.000,0.000
1509076514.680,835.924,827.562,846.000,837.089,0.000,0.000
1509076514.680,854.088,828.179,842.984,850.523,0.000,0.000
1509076514.680,864.300,828.316,844.149,853.128,0.000,0.000
1509076514.680,869.715,827.288,844.834,853.334,0.000,0.000
1509076514.695,857.789,824.341,846.411,852.580,0.000,0.000
1509076514.695,849.632,825.300,845.177,847.233,0.000,0.000
1509076514.695,850.386,824.821,839.420,840.037,0.000,0.000
1509076514.695,833.320,825.986,840.791,834.211,0.000,0.000
1509076514.695,812.552,822.079,842.778,832.086,0.000,0.000
1509076514.695,836.404,822.010,842.230,836.541,0.000,0.000
1509076514.695,852.511,823.450,843.121,847.302,0.000,0.000
1509076514.695,848.536,818.995,843.669,856.692,0.000,0.000
1509076514.712,852.374,818.720,844.972,860.873,0.000,0.000
1509076514.713,859.845,825.232,842.915,864.848,0.000,0.000
1509076514.713,861.490,829.070,842.230,861.079,0.000,0.000
1509076514.713,852.648,830.441,842.847,849.495,0.000,0.000
1509076514.713,837.021,829.618,843.601,826.671,0.000,0.000
1509076514.713,836.541,825.026,841.065,829.755,0.000,0.000
1509076514.713,834.759,815.910,841.270,837.158,0.000,0.000
1509076514.713,840.242,814.539,841.133,840.516,0.000,0.000
1509076514.729,852.374,820.091,843.190,850.044,0.000,0.000
1509076514.729,854.019,820.571,844.697,856.761,0.000,0.000
1509076514.729,866.630,823.313,842.161,865.191,0.000,0.000
1509076514.729,865.054,830.030,844.081,857.789,0.000,0.000
1509076514.729,858.954,834.759,842.915,853.813,0.000,0.000
1509076514.729,848.330,837.980,843.806,837.912,0.000,0.000
1509076514.729,845.246,836.952,840.516,829.961,0.000,0.000
1509076514.729,834.211,834.005,839.351,826.328,0.000,0.000
1509076514.746,833.525,831.743,839.762,828.864,0.000,0.000
1509076514.746,846.274,831.606,841.270,833.936,0.000,0.000
1509076514.746,861.558,831.606,841.613,850.318,0.000,0.000
1509076514.746,854.979,829.961,845.109,851.277,0.000,0.000
1509076514.746,859.160,824.958,845.451,854.773,0.000,0.000
1509076514.746,856.075,826.054,846.822,843.601,0.000,0.000
1509076514.746,846.822,825.712,845.177,851.140,0.000,0.000
1509076514.746,848.947,822.696,844.560,848.399,0.000,0.000
1509076514.746,855.938,824.752,844.766,837.706,0.000,0.000
1509076514.763,847.096,823.724,846.000,834.553,0.000,0.000
1509076514.763,845.520,823.039,848.947,833.388,0.000,0.000
1509076514.763,852.922,819.749,844.423,840.585,0.000,0.000
1509076514.763,851.209,821.051,847.165,842.641,0.000,0.000
1509076514.763,853.265,821.531,850.866,850.660,0.000,0.000
1509076514.763,868.413,814.882,848.741,867.590,0.000,0.000
1509076514.763,873.347,813.717,850.044,866.219,0.000,0.000
1509076514.763,859.297,814.060,851.894,854.499,0.000,0.000
1509076514.780,850.181,820.091,852.648,842.298,0.000,0.000
1509076514.780,843.806,826.534,850.523,831.949,0.000,0.000
1509076514.780,836.267,828.316,845.109,835.787,0.000,0.000
1509076514.780,837.295,830.235,847.028,829.961,0.000,0.000
1509076514.780,835.444,833.114,848.330,830.921,0.000,0.000
1509076514.780,833.936,836.335,853.059,837.775,0.000,0.000
1509076514.780,851.414,834.142,849.769,854.293,0.000,0.000
1509076514.780,856.007,833.388,850.729,861.353,0.000,0.000
1509076514.780,864.026,830.989,852.168,857.857,0.000,0.000
1509076514.795,856.761,828.727,853.813,853.882,0.000,0.000
1509076514.795,852.648,826.123,852.991,846.068,0.000,0.000
1509076514.795,855.047,822.627,848.193,839.625,0.000,0.000
1509076514.795,845.383,822.010,850.318,836.130,0.000,0.000
1509076514.795,831.126,820.571,851.140,834.142,0.000,0.000
1509076514.795,835.033,819.200,851.483,833.388,0.000,0.000
1509076514.795,842.778,812.003,851.552,838.597,0.000,0.000
1509076514.813,846.479,810.358,853.882,853.539,0.000,0.000
1509076514.813,857.652,812.483,853.608,857.720,0.000,0.000
1509076514.813,869.167,818.652,850.660,856.555,0.000,0.000
1509076514.813,856.829,823.039,851.552,847.919,0.000,0.000
1509076514.813,850.044,822.079,851.072,841.956,0.000,0.000
1509076514.813,839.762,826.191,853.745,817.966,0.000,0.000
1509076514.813,835.239,829.687,850.798,826.603,0.000,0.000
1509076514.813,835.376,827.151,850.318,837.638,0.000,0.000
1509076514.813,847.165,830.578,853.265,836.747,0.000,0.000
1509076514.829,849.906,832.223,853.813,842.847,0.000,0.000
1509076514.829,843.121,832.154,855.458,856.418,0.000,0.000
1509076514.829,860.256,831.058,852.031,864.848,0.000,0.000
1509076514.829,860.736,831.880,853.813,853.059,0.000,0.000
1509076514.829,847.713,830.647,854.636,845.314,0.000,0.000
1509076514.829,839.283,829.413,854.362,830.989,0.000,0.000
1509076514.829,841.682,825.300,850.181,824.135,0.000,0.000
1509076514.829,835.170,821.119,847.439,824.546,0.000,0.000
1509076514.846,836.267,822.010,849.632,835.170,0.000,0.000
1509076514.846,836.541,821.873,849.221,837.364,0.000,0.000
1509076514.846,842.367,816.390,849.016,850.181,0.000,0.000
1509076514.846,852.031,817.692,853.745,857.857,0.000,0.000
1509076514.846,861.764,819.611,856.761,859.776,0.000,0.000
1509076514.846,863.135,818.789,857.652,854.567,0.000,0.000
1509076514.846,859.502,816.527,855.458,854.979,0.000,0.000
1509076514.846,853.265,819.132,853.402,843.190,0.000,0.000
1509076514.846,845.588,822.079,851.552,828.453,0.000,0.000
1509076514.864,834.690,824.272,849.084,827.836,0.000,0.000
1509076514.864,837.158,826.534,849.975,832.703,0.000,0.000
1509076514.864,848.330,825.575,848.399,841.545,0.000,0.000
1509076514.864,847.850,825.026,850.455,844.697,0.000,0.000
1509076514.864,839.420,823.724,853.882,852.168,0.000,0.000
1509076514.864,851.894,824.752,854.636,856.692,0.000,0.000
1509076514.864,864.780,826.397,853.676,857.240,0.000,0.000
1509076514.864,852.305,824.478,853.608,852.854,0.000,0.000
1509076514.879,840.311,821.668,850.729,842.230,0.000,0.000
1509076514.879,835.102,819.269,848.536,825.506,0.000,0.000
1509076514.879,839.009,818.172,849.975,824.821,0.000,0.000
1509076514.879,839.283,818.789,847.850,836.610,0.000,0.000
1509076514.879,840.037,822.559,850.455,836.678,0.000,0.000
1509076514.879,836.678,821.119,856.692,839.351,0.000,0.000
1509076514.879,840.722,816.047,856.966,849.632,0.000,0.000
1509076514.879,850.660,819.474,854.362,850.386,0.000,0.000
1509076514.898,857.446,825.300,853.539,850.249,0.000,0.000
1509076514.898,853.334,827.082,853.882,850.181,0.000,0.000
1509076514.898,854.773,825.437,849.838,849.290,0.000,0.000
1509076514.898,842.778,823.039,849.564,832.292,0.000,0.000
1509076514.898,831.538,816.321,849.153,830.852,0.000,0.000
1509076514.898,826.397,819.063,850.523,833.045,0.000,0.000
1509076514.898,837.569,823.107,847.576,841.407,0.000,0.000
1509076514.898,843.738,824.478,850.798,849.084,0.000,0.000
1509076514.898,845.177,821.256,851.689,855.321,0.000,0.000
1509076514.911,853.950,823.724,849.769,856.486,0.000,0.000
1509076514.911,857.583,824.272,849.701,856.829,0.000,0.000
1509076514.911,852.237,823.107,847.782,858.954,0.000,0.000
1509076514.911,850.318,821.325,845.794,852.374,0.000,0.000
1509076514.911,846.891,814.677,845.520,839.900,0.000,0.000
1509076514.911,830.647,813.374,848.193,829.413,0.000,0.000
1509076514.911,825.849,818.309,847.850,829.893,0.000,0.000
1509076514.911,833.388,826.466,847.987,836.335,0.000,0.000
1509076514.929,841.133,829.276,847.850,841.819,0.000,0.000
1509076514.929,839.351,829.139,846.822,847.919,0.000,0.000
1509076514.929,848.878,825.986,845.520,852.374,0.000,0.000
1509076514.929,856.624,827.082,849.016,849.975,0.000,0.000
1509076514.929,840.996,827.699,851.483,836.884,0.000,0.000
1509076514.929,837.706,825.095,849.016,831.058,0.000,0.000
1509076514.929,835.856,821.805,844.903,828.179,0.000,0.000
1509076514.929,828.248,821.256,843.532,827.631,0.000,0.000
1509076514.946,828.933,819.063,844.903,832.429,0.000,0.000
1509076514.946,835.307,815.910,843.258,833.662,0.000,0.000
1509076514.946,842.436,815.019,839.694,843.943,0.000,0.000
1509076514.946,841.202,815.979,843.532,842.093,0.000,0.000
1509076514.946,852.305,818.789,842.093,844.972,0.000,0.000
1509076514.946,853.334,824.204,846.205,839.009,0.000,0.000
1509076514.946,848.467,817.555,844.081,841.202,0.000,0.000
1509076514.946,838.049,814.677,843.464,836.815,0.000,0.000
1509076514.946,832.977,813.648,842.641,831.400,0.000,0.000
1509076514.962,826.534,816.938,841.407,833.936,0.000,0.000
1509076514.962,826.466,821.256,840.791,835.239,0.000,0.000
1509076514.962,837.912,823.518,837.226,839.488,0.000,0.000
1509076514.962,838.529,821.462,840.379,844.903,0.000,0.000
1509076514.962,843.738,816.527,844.492,849.358,0.000,0.000
1509076514.962,853.402,815.019,848.330,857.926,0.000,0.000
1509076514.962,855.390,815.705,847.508,863.478,0.000,0.000
1509076514.962,849.084,819.200,844.012,857.103,0.000,0.000
1509076514.979,842.984,827.631,843.121,839.694,0.000,0.000
1509076514.979,836.747,830.030,840.722,831.058,0.000,0.000
1509076514.979,838.597,823.039,840.448,840.859,0.000,0.000
1509076514.979,835.033,820.982,842.984,833.183,0.000,0.000
1509076514.979,839.009,815.430,840.242,832.908,0.000,0.000
1509076514.979,837.980,815.499,842.641,837.364,0.000,0.000
1509076514.979,846.479,814.471,841.407,855.938,0.000,0.000
1509076514.979,855.321,815.568,841.270,862.724,0.000,0.000
1509076514.996,860.462,817.213,842.641,857.926,0.000,0.000
1509076514.996,853.334,818.995,844.218,851.757,0.000,0.000
1509076514.996,849.221,817.075,840.791,847.028,0.000,0.000
1509076514.996,838.392,817.007,840.448,822.696,0.000,0.000
1509076514.996,831.400,816.390,839.283,819.611,0.000,0.000
1509076514.996,822.696,817.829,842.230,818.241,0.000,0.000
1509076514.996,827.357,821.325,840.859,830.235,0.000,0.000
1509076514.996,837.158,822.285,842.778,838.117,0.000,0.000
1509076514.996,846.342,822.147,846.754,849.290,0.000,0.000
1509076515.013,854.430,821.325,847.028,856.555,0.000,0.000
1509076515.013,852.785,820.571,844.903,856.007,0.000,0.000
1509076515.013,851.414,820.982,842.161,861.353,0.000,0.000
1509076515.013,842.298,818.241,842.367,842.915,0.000,0.000
1509076515.013,830.441,812.552,843.532,820.845,0.000,0.000
1509076515.013,827.425,813.374,842.161,819.886,0.000,0.000
1509076515.013,831.263,814.265,843.806,824.889,0.000,0.000
1509076515.013,840.037,818.515,845.520,830.509,0.000,0.000
1509076515.029,843.532,821.051,845.863,841.065,0.000,0.000
1509076515.029,849.153,825.780,847.233,849.564,0.000,0.000
1509076515.029,863.752,826.328,845.588,859.913,0.000,0.000
1509076515.029,858.474,824.958,847.919,854.225,0.000,0.000
1509076515.029,855.801,823.587,845.794,857.994,0.000,0.000
1509076515.029,853.059,823.655,843.258,849.701,0.000,0.000
1509076515.029,844.355,820.982,841.407,838.255,0.000,0.000
1509076515.029,827.768,816.938,842.984,830.715,0.000,0.000
1509076515.046,830.578,820.297,845.246,833.662,0.000,0.000
1509076515.046,842.161,822.901,842.847,835.993,0.000,0.000
