timestamps,TP9,FP1,FP2,TP10,n/a,n/a,Marker0
1508374308.791,861.147,824.272,848.056,848.536,0.000,0.000,0
1508374308.793,854.773,826.466,849.838,848.878,0.000,0.000,0
1508374308.795,851.689,825.437,850.318,855.595,0.000,0.000,0
1508374308.797,847.028,828.111,852.100,851.346,0.000,0.000,0
1508374308.799,843.875,829.070,850.318,839.420,0.000,0.000,0
1508374308.801,846.342,828.590,851.072,838.255,0.000,0.000,0
1508374308.803,840.722,826.877,850.729,836.061,0.000,0.000,0
1508374308.805,840.928,826.328,849.153,838.049,0.000,0.000,0
1508374308.807,845.588,824.135,848.673,844.560,0.000,0.000,0
1508374308.809,847.645,820.640,844.903,850.592,0.000,0.000,0
1508374308.811,845.314,821.393,845.588,847.508,0.000,0.000,0
1508374308.813,835.993,822.901,848.124,832.634,0.000,0.000,0
1508374308.815,838.734,818.104,849.975,832.840,0.000,0.000,0
1508374308.817,851.963,819.954,850.592,846.548,0.000,0.000,0
1508374308.819,851.209,824.135,849.564,851.963,0.000,0.000,0
1508374308.821,850.866,824.478,849.495,848.810,0.000,0.000,0
1508374308.823,854.841,824.958,849.495,848.673,0.000,0.000,0
1508374308.825,858.063,823.039,848.947,850.523,0.000,0.000,0
1508374308.827,860.188,818.241,848.810,857.446,0.000,0.000,0
1508374308.829,858.817,819.954,849.838,849.084,0.000,0.000,0
1508374308.831,854.979,821.942,846.754,840.105,0.000,0.000,0
1508374308.833,852.648,824.135,849.427,845.177,0.000,0.000,0
1508374308.835,854.499,824.272,849.358,855.253,0.000,0.000,0
1508374308.837,854.979,825.780,849.016,855.047,0.000,0.000,0
1508374308.839,848.262,824.546,848.673,850.318,0.000,0.000,0
1508374308.841,851.757,823.724,850.181,855.184,0.000,0.000,0
1508374308.843,849.564,819.886,847.850,850.798,0.000,0.000,0
1508374308.845,853.128,818.789,846.411,847.028,0.000,0.000,0
1508374308.847,846.342,814.677,844.629,832.566,0.000,0.000,0
1508374308.849,846.479,819.543,846.137,839.077,0.000,0.000,0
1508374308.851,845.314,822.833,844.286,844.834,0.000,0.000,0
1508374308.853,839.146,824.272,844.560,844.834,0.000,0.000,0
1508374308.855,838.871,821.188,846.548,840.585,0.000,0.000,0
1508374308.857,836.952,818.104,846.137,835.376,0.000,0.000,0
1508374308.859,835.856,817.624,842.641,830.167,0.000,0.000,0
1508374308.861,842.984,816.801,840.174,836.335,0.000,0.000,0
1508374308.863,848.810,819.817,842.984,842.093,0.000,0.000,0
1508374308.865,848.673,821.256,843.669,833.114,0.000,0.000,0
1508374308.867,855.390,821.256,844.834,832.977,0.000,0.000,0
1508374308.869,856.212,821.942,845.040,837.912,0.000,0.000,0
1508374308.871,842.504,821.736,844.355,837.158,0.000,0.000,0
1508374308.873,839.420,823.039,845.520,836.610,0.000,0.000,0
1508374308.875,841.476,824.478,846.068,848.673,0.000,0.000,0
1508374308.877,837.364,823.107,844.012,842.230,0.000,0.000,0
1508374308.879,837.021,819.886,844.560,837.706,0.000,0.000,0
1508374308.881,832.223,819.680,845.451,830.921,0.000,0.000,0
1508374308.883,840.654,822.079,847.508,840.311,0.000,0.000,0
1508374308.885,847.370,820.365,843.943,841.339,0.000,0.000,0
1508374308.887,850.455,820.640,841.887,844.972,0.000,0.000,0
1508374308.889,851.072,820.982,841.270,844.218,0.000,0.000,0
1508374308.891,846.617,823.450,842.504,845.246,0.000,0.000,0
1508374308.893,846.274,824.889,845.040,852.443,0.000,0.000,0
1508374308.895,838.323,813.854,846.274,842.847,0.000,0.000,0
1508374308.897,839.968,808.371,845.863,841.887,0.000,0.000,0
1508374308.899,842.915,816.596,847.233,845.863,0.000,0.000,0
1508374308.901,850.660,817.418,847.096,849.564,0.000,0.000,0
1508374308.903,854.910,821.873,847.645,843.532,0.000,0.000,0
1508374308.905,858.337,823.518,846.548,838.186,0.000,0.000,0
1508374308.907,856.075,822.901,844.286,838.323,0.000,0.000,0
1508374308.909,849.975,824.272,843.395,842.024,0.000,0.000,0
1508374308.911,849.358,822.559,844.560,853.950,0.000,0.000,0
1508374308.913,846.959,821.873,847.713,850.798,0.000,0.000,0
1508374308.915,841.819,821.736,848.056,843.532,0.000,0.000,0
1508374308.917,843.395,822.833,849.153,846.891,0.000,0.000,0
1508374308.919,843.943,823.313,848.673,850.318,0.000,0.000,0
1508374308.921,845.383,825.095,848.810,850.318,0.000,0.000,0
1508374308.923,848.878,826.534,850.112,854.773,0.000,0.000,0
1508374308.925,853.265,823.792,849.495,859.365,0.000,0.000,0
1508374308.927,851.826,820.777,845.863,856.898,0.000,0.000,0
1508374308.929,849.084,821.599,846.754,847.782,0.000,0.000,0
1508374308.931,856.349,823.998,848.536,844.766,0.000,0.000,0
1508374308.933,851.552,824.341,847.782,842.778,0.000,0.000,0
1508374308.935,846.822,825.917,846.342,837.226,0.000,0.000,0
1508374308.937,844.423,826.054,847.645,832.292,0.000,0.000,0
1508374308.939,842.710,823.998,847.028,834.279,0.000,0.000,0
1508374308.941,843.395,821.668,846.274,833.731,0.000,0.000,0
1508374308.943,850.318,818.035,844.423,844.903,0.000,0.000,0
1508374308.945,849.838,816.733,845.314,845.040,0.000,0.000,0
1508374308.947,854.156,818.104,843.669,841.887,0.000,0.000,0
1508374308.949,855.047,818.857,845.040,851.072,0.000,0.000,0
1508374308.951,847.028,820.023,847.850,852.100,0.000,0.000,0
1508374308.953,843.532,823.792,850.181,849.084,0.000,0.000,0
1508374308.955,846.822,824.341,850.866,852.991,0.000,0.000,0
1508374308.957,848.673,823.107,850.798,853.539,0.000,0.000,0
1508374308.959,855.184,824.889,849.906,860.393,0.000,0.000,0
1508374308.961,856.144,825.849,849.769,853.539,0.000,0.000,0
1508374308.963,858.611,824.478,848.536,849.495,0.000,0.000,0
1508374308.965,860.119,822.696,846.479,853.265,0.000,0.000,0
1508374308.967,865.397,823.176,844.629,849.153,0.000,0.000,0
1508374308.969,861.490,823.176,845.520,842.573,0.000,0.000,0
1508374308.971,856.966,822.901,847.165,846.479,0.000,0.000,0
1508374308.973,853.539,824.478,850.112,850.660,0.000,0.000,0
1508374308.975,851.140,827.014,850.181,851.894,0.000,0.000,0
1508374308.977,849.495,828.042,848.536,847.987,0.000,0.000,0
1508374308.979,844.218,824.546,845.109,847.028,0.000,0.000,0
1508374308.981,849.632,824.821,846.617,843.943,0.000,0.000,0
1508374308.983,851.140,825.849,848.262,842.504,0.000,0.000,0
1508374308.985,852.374,825.163,849.427,845.383,0.000,0.000,0
1508374308.987,851.003,820.982,847.987,843.327,0.000,0.000,0
1508374308.989,846.000,817.007,847.370,842.161,0.000,0.000,0
1508374308.991,848.878,818.172,846.891,847.370,0.000,0.000,0
1508374308.993,846.411,817.624,846.617,848.878,0.000,0.000,0
1508374308.995,846.479,817.898,848.810,857.515,0.000,0.000,0
1508374308.997,849.221,814.539,850.798,849.221,0.000,0.000,0
1508374308.999,853.745,813.374,852.511,848.124,0.000,0.000,0
1508374309.001,848.947,816.184,850.592,848.124,0.000,0.000,0
1508374309.003,844.834,818.926,848.056,842.847,0.000,0.000,0
1508374309.005,847.713,821.942,846.754,840.516,0.000,0.000,0
1508374309.007,844.629,822.353,844.560,838.734,0.000,0.000,0
1508374309.009,841.545,821.256,843.806,842.093,0.000,0.000,0
1508374309.011,845.794,820.640,844.423,855.321,0.000,0.000,0
1508374309.013,841.202,819.200,843.601,847.576,0.000,0.000,0
1508374309.015,833.183,816.459,843.738,834.074,0.000,0.000,0
1508374309.017,832.840,818.172,846.205,835.993,0.000,0.000,0
1508374309.019,837.980,819.611,844.766,835.513,0.000,0.000,0
1508374309.021,841.956,821.256,844.560,838.734,0.000,0.000,0
1508374309.023,847.645,822.422,842.573,842.436,0.000,0.000,0
1508374309.025,848.947,822.285,842.641,844.834,0.000,0.000,0
1508374309.027,852.648,819.063,840.791,852.580,0.000,0.000,0
1508374309.029,847.165,814.334,840.311,850.592,0.000,0.000,0
1508374309.031,843.875,812.141,840.654,844.012,0.000,0.000,0
1508374309.033,846.959,812.072,844.766,847.233,0.000,0.000,0
1508374309.035,844.081,812.415,845.657,847.645,0.000,0.000,0
1508374309.037,841.887,815.636,845.657,847.233,0.000,0.000,0
1508374309.039,841.065,818.309,845.383,844.766,0.000,0.000,0
1508374309.041,844.766,820.434,845.726,845.109,0.000,0.000,0
1508374309.043,852.580,820.982,846.000,853.950,0.000,0.000,0
1508374309.045,850.455,819.886,844.492,849.769,0.000,0.000,0
1508374309.047,850.181,819.200,843.395,845.520,0.000,0.000,0
1508374309.049,845.451,820.365,842.504,842.778,0.000,0.000,0
1508374309.051,848.878,821.942,845.383,846.617,0.000,0.000,0
1508374309.053,840.585,821.256,845.246,846.754,0.000,0.000,0
1508374309.055,840.037,822.010,846.137,844.903,0.000,0.000,0
1508374309.057,837.980,823.655,846.068,841.065,0.000,0.000,0
1508374309.059,835.513,819.337,844.766,842.778,0.000,0.000,0
1508374309.061,837.226,818.789,846.548,840.585,0.000,0.000,0
1508374309.063,835.787,820.640,845.451,830.715,0.000,0.000,0
1508374309.065,842.230,821.393,845.931,831.812,0.000,0.000,0
1508374309.067,854.979,818.720,843.875,838.940,0.000,0.000,0
1508374309.069,854.499,819.200,844.355,838.871,0.000,0.000,0
1508374309.071,851.963,820.365,845.726,837.843,0.000,0.000,0
1508374309.073,847.919,818.720,846.342,838.940,0.000,0.000,0
1508374309.075,846.959,819.611,847.302,840.311,0.000,0.000,0
1508374309.077,848.056,821.256,849.632,852.991,0.000,0.000,0
1508374309.079,844.903,819.680,849.358,844.972,0.000,0.000,0
1508374309.081,840.037,819.611,846.411,834.690,0.000,0.000,0
1508374309.083,844.629,819.749,847.850,834.622,0.000,0.000,0
1508374309.085,854.293,815.568,849.906,841.339,0.000,0.000,0
1508374309.087,861.147,814.060,850.592,850.318,0.000,0.000,0
1508374309.089,861.147,815.156,849.084,844.834,0.000,0.000,0
1508374309.091,859.708,819.954,849.290,844.903,0.000,0.000,0
1508374309.093,847.576,820.914,847.645,846.959,0.000,0.000,0
1508374309.095,841.819,821.873,849.769,845.451,0.000,0.000,0
1508374309.097,837.980,820.503,851.072,838.734,0.000,0.000,0
1508374309.099,842.778,820.434,852.443,846.617,0.000,0.000,0
1508374309.101,847.987,819.749,851.689,852.922,0.000,0.000,0
1508374309.103,852.374,821.668,849.564,849.632,0.000,0.000,0
1508374309.105,856.898,821.119,849.016,852.237,0.000,0.000,0
1508374309.107,858.748,820.434,848.810,853.539,0.000,0.000,0
1508374309.109,855.458,819.817,849.564,853.676,0.000,0.000,0
1508374309.111,854.156,818.378,847.645,863.066,0.000,0.000,0
1508374309.113,846.548,817.966,845.246,851.346,0.000,0.000,0
1508374309.115,836.884,819.749,844.355,840.996,0.000,0.000,0
1508374309.117,839.694,822.970,847.645,842.093,0.000,0.000,0
1508374309.119,845.109,823.587,848.193,846.342,0.000,0.000,0
1508374309.121,848.947,824.067,849.838,847.028,0.000,0.000,0
1508374309.123,850.729,822.627,850.249,845.726,0.000,0.000,0
1508374309.125,852.922,820.982,850.044,858.543,0.000,0.000,0
1508374309.127,850.318,821.188,850.455,858.268,0.000,0.000,0
1508374309.129,843.601,823.861,850.798,853.471,0.000,0.000,0
1508374309.131,844.972,820.503,851.757,856.212,0.000,0.000,0
1508374309.133,846.754,817.829,849.632,854.499,0.000,0.000,0
1508374309.135,842.641,818.995,848.947,848.741,0.000,0.000,0
1508374309.137,839.968,818.720,847.919,847.919,0.000,0.000,0
1508374309.139,841.339,820.503,848.399,847.165,0.000,0.000,0
1508374309.141,846.000,822.216,848.673,845.520,0.000,0.000,0
1508374309.143,855.527,822.353,847.782,856.486,0.000,0.000,0
1508374309.145,855.732,822.422,847.096,848.124,0.000,0.000,0
1508374309.147,851.620,820.297,844.766,841.613,0.000,0.000,0
1508374309.149,849.495,818.583,846.959,840.448,0.000,0.000,0
1508374309.151,851.209,817.692,848.604,839.283,0.000,0.000,0
1508374309.153,846.137,817.487,849.495,839.009,0.000,0.000,0
1508374309.155,835.719,820.297,850.386,836.473,0.000,0.000,0
1508374309.157,835.307,822.627,849.632,834.896,0.000,0.000,0
1508374309.159,840.996,819.680,845.657,841.682,0.000,0.000,0
1508374309.161,845.726,820.845,846.479,840.859,0.000,0.000,0
1508374309.163,843.190,821.188,847.096,835.307,0.000,0.000,0
1508374309.165,849.769,825.095,847.028,838.186,0.000,0.000,0
1508374309.167,858.543,822.285,845.246,846.891,0.000,0.000,0
1508374309.169,856.212,819.337,846.959,851.620,0.000,0.000,0
1508374309.171,851.689,821.119,848.262,849.632,0.000,0.000,0
1508374309.173,846.479,823.518,847.508,851.689,0.000,0.000,0
1508374309.175,849.153,823.518,849.016,861.833,0.000,0.000,0
1508374309.177,848.878,819.269,848.262,860.805,0.000,0.000,0
1508374309.179,846.205,817.075,848.673,851.826,0.000,0.000,0
1508374309.181,845.726,815.225,847.508,842.847,0.000,0.000,0
1508374309.183,851.003,811.592,844.834,844.903,0.000,0.000,0
1508374309.185,852.374,805.766,839.831,842.367,0.000,0.000,0
1508374309.187,852.717,808.576,840.722,842.915,0.000,0.000,0
1508374309.189,849.838,813.717,844.218,842.367,0.000,0.000,0
1508374309.191,850.455,820.228,847.096,844.560,0.000,0.000,0
1508374309.193,843.943,823.039,846.411,849.427,0.000,0.000,0
1508374309.195,840.105,824.067,845.794,847.576,0.000,0.000,0
1508374309.197,837.364,823.039,844.903,839.625,0.000,0.000,0
1508374309.199,842.436,826.603,845.794,839.146,0.000,0.000,0
1508374309.201,847.850,826.945,845.931,842.573,0.000,0.000,0
1508374309.203,848.056,826.671,846.891,843.601,0.000,0.000,0
1508374309.205,852.717,826.671,846.274,844.012,0.000,0.000,0
1508374309.207,862.107,825.575,848.399,845.657,0.000,0.000,0
1508374309.209,863.546,822.627,848.673,852.854,0.000,0.000,0
1508374309.211,851.346,821.942,849.427,848.467,0.000,0.000,0
1508374309.213,839.831,823.587,848.399,840.242,0.000,0.000,0
1508374309.215,841.270,827.768,848.810,840.037,0.000,0.000,0
1508374309.217,841.545,822.833,850.044,843.738,0.000,0.000,0
1508374309.219,840.585,820.023,849.016,843.464,0.000,0.000,0
1508374309.221,841.133,819.817,848.741,843.738,0.000,0.000,0
1508374309.223,842.230,820.708,851.140,845.109,0.000,0.000,0
1508374309.225,847.576,819.954,849.427,848.604,0.000,0.000,0
1508374309.227,852.443,818.789,845.314,841.133,0.000,0.000,0
1508374309.229,855.938,820.297,844.355,844.560,0.000,0.000,0
1508374309.231,842.641,820.023,846.137,841.819,0.000,0.000,0
1508374309.233,837.432,821.256,847.165,840.928,0.000,0.000,0
1508374309.235,839.009,820.777,847.850,841.065,0.000,0.000,0
1508374309.237,840.996,821.256,849.564,838.940,0.000,0.000,0
1508374309.239,840.311,820.297,849.701,839.351,0.000,0.000,0
1508374309.241,838.460,820.297,849.564,840.722,0.000,0.000,0
1508374309.243,844.903,823.724,847.850,852.511,0.000,0.000,0
1508374309.245,846.411,824.135,846.479,843.601,0.000,0.000,0
1508374309.247,845.314,821.256,845.177,839.762,0.000,0.000,0
1508374309.249,843.875,822.627,848.193,843.052,0.000,0.000,0
1508374309.251,851.072,821.668,848.193,845.657,0.000,0.000,0
1508374309.253,853.676,824.067,847.233,850.044,0.000,0.000,0
1508374309.255,848.947,825.712,847.645,850.798,0.000,0.000,0
1508374309.257,849.975,825.643,848.673,855.664,0.000,0.000,0
1508374309.259,852.237,826.808,849.564,845.246,0.000,0.000,0
1508374309.261,856.761,823.450,848.193,838.734,0.000,0.000,0
1508374309.263,856.555,823.450,848.124,835.993,0.000,0.000,0
1508374309.265,861.696,822.010,847.165,843.190,0.000,0.000,0
1508374309.267,862.724,818.104,846.342,844.286,0.000,0.000,0
1508374309.269,851.483,818.515,847.165,846.274,0.000,0.000,0
1508374309.271,846.274,819.132,845.657,846.822,0.000,0.000,0
1508374309.273,850.592,821.942,846.137,848.056,0.000,0.000,0
1508374309.275,850.249,823.518,849.016,848.741,0.000,0.000,0
1508374309.277,850.249,822.627,850.729,846.137,0.000,0.000,0
1508374309.279,849.906,818.378,848.193,849.153,0.000,0.000,0
1508374309.281,847.302,814.539,847.233,847.370,0.000,0.000,0
1508374309.283,846.548,814.334,847.302,839.077,0.000,0.000,0
1508374309.285,850.729,815.293,847.302,838.460,0.000,0.000,0
1508374309.287,855.595,816.596,848.878,837.980,0.000,0.000,0
1508374309.289,856.555,820.708,847.850,837.501,0.000,0.000,0
1508374309.291,858.474,823.518,850.660,851.209,0.000,0.000,0
1508374309.293,856.624,820.914,850.455,852.785,0.000,0.000,0
1508374309.295,848.604,819.337,850.798,855.253,0.000,0.000,0
1508374309.297,844.012,823.518,850.523,847.165,0.000,0.000,0
1508374309.299,850.249,829.618,849.906,846.274,0.000,0.000,0
1508374309.301,851.894,829.687,851.552,849.769,0.000,0.000,0
1508374309.303,850.455,824.752,851.414,847.233,0.000,0.000,0
1508374309.305,859.708,822.696,851.346,851.346,0.000,0.000,0
1508374309.307,860.325,820.023,850.455,844.492,0.000,0.000,0
1508374309.309,853.196,816.321,848.741,842.298,0.000,0.000,0
1508374309.311,849.701,815.362,849.016,845.040,0.000,0.000,0
1508374309.313,846.137,816.321,851.346,844.766,0.000,0.000,0
1508374309.315,846.137,814.197,853.128,853.265,0.000,0.000,0
1508374309.317,849.632,816.321,854.088,855.184,0.000,0.000,0
1508374309.319,856.007,823.039,853.882,856.555,0.000,0.000,0
1508374309.321,858.680,827.219,853.882,851.346,0.000,0.000,0
1508374309.323,855.390,824.958,852.305,847.370,0.000,0.000,0
1508374309.325,855.116,821.668,850.523,849.084,0.000,0.000,0
1508374309.327,858.954,821.188,849.084,849.975,0.000,0.000,0
1508374309.329,857.035,820.982,846.685,852.785,0.000,0.000,0
1508374309.331,856.555,820.297,849.495,855.732,0.000,0.000,0
1508374309.333,849.153,822.422,850.523,851.483,0.000,0.000,0
1508374309.335,846.548,824.272,851.483,853.539,0.000,0.000,0
1508374309.337,851.209,820.571,852.922,857.720,0.000,0.000,0
1508374309.339,856.281,818.172,853.128,855.116,0.000,0.000,0
1508374309.341,860.599,818.378,851.757,847.028,0.000,0.000,0
1508374309.343,861.764,820.777,850.386,841.339,0.000,0.000,0
1508374309.345,855.732,821.942,848.741,833.936,0.000,0.000,0
1508374309.347,857.172,822.010,848.947,839.009,0.000,0.000,0
1508374309.349,857.789,820.160,849.495,856.692,0.000,0.000,0
1508374309.351,850.112,821.325,850.798,851.209,0.000,0.000,0
1508374309.353,839.351,825.575,853.059,840.928,0.000,0.000,0
1508374309.355,842.573,828.111,851.689,842.024,0.000,0.000,0
1508374309.357,849.564,824.546,850.044,845.451,0.000,0.000,0
1508374309.359,849.632,817.487,848.124,853.471,0.000,0.000,0
1508374309.361,843.943,813.032,847.645,845.109,0.000,0.000,0
1508374309.363,835.239,813.785,848.810,833.114,0.000,0.000,0
1508374309.365,840.585,817.692,851.277,837.706,0.000,0.000,0
1508374309.367,851.620,820.160,850.729,848.330,0.000,0.000,0
1508374309.369,855.047,819.132,851.003,853.539,0.000,0.000,0
1508374309.371,852.305,819.063,848.330,845.931,0.000,0.000,0
1508374309.373,849.906,821.119,848.536,841.339,0.000,0.000,0
1508374309.375,846.068,823.244,850.318,845.314,0.000,0.000,0
1508374309.377,850.729,822.764,850.318,854.704,0.000,0.000,0
1508374309.379,853.745,823.450,850.249,853.265,0.000,0.000,0
1508374309.381,849.495,819.749,847.919,842.847,0.000,0.000,0
1508374309.383,850.455,817.829,847.439,838.803,0.000,0.000,0
1508374309.385,856.829,816.870,845.863,840.242,0.000,0.000,0
1508374309.387,859.434,818.035,846.000,845.520,0.000,0.000,0
1508374309.389,856.555,817.007,843.532,844.560,0.000,0.000,1
1508374309.391,849.975,815.019,845.726,853.471,0.000,0.000,0
1508374309.393,842.230,816.596,849.290,847.370,0.000,0.000,0
1508374309.395,839.625,816.116,851.003,845.177,0.000,0.000,0
1508374309.397,842.573,816.870,851.483,846.685,0.000,0.000,0
1508374309.399,847.028,819.474,852.305,854.499,0.000,0.000,0
1508374309.401,846.000,818.309,848.810,853.471,0.000,0.000,0
1508374309.403,845.726,815.088,847.370,850.866,0.000,0.000,0
1508374309.405,852.443,813.648,846.342,846.754,0.000,0.000,0
1508374309.407,857.994,818.241,845.383,844.355,0.000,0.000,0
1508374309.409,858.063,822.696,846.479,845.040,0.000,0.000,0
1508374309.411,851.346,820.914,846.754,855.321,0.000,0.000,0
1508374309.413,844.766,821.256,845.726,844.492,0.000,0.000,0
1508374309.415,844.560,821.325,846.754,838.529,0.000,0.000,0
1508374309.417,846.205,820.777,848.467,842.504,0.000,0.000,0
1508374309.419,844.560,822.285,847.370,843.669,0.000,0.000,0
1508374309.421,847.713,823.518,846.479,839.968,0.000,0.000,0
1508374309.423,857.035,826.191,847.233,849.290,0.000,0.000,0
1508374309.425,857.446,824.821,847.028,848.193,0.000,0.000,0
1508374309.427,856.075,822.353,845.726,847.713,0.000,0.000,0
1508374309.429,845.451,820.023,845.588,839.900,0.000,0.000,0
1508374309.431,848.399,820.914,846.000,843.258,0.000,0.000,0
1508374309.433,851.963,818.995,846.617,848.673,0.000,0.000,0
1508374309.435,848.810,819.749,848.810,852.854,0.000,0.000,0
1508374309.437,851.140,817.624,848.810,852.717,0.000,0.000,0
1508374309.439,851.140,817.692,847.645,852.168,0.000,0.000,0
1508374309.441,849.564,818.857,845.657,847.028,0.000,0.000,0
1508374309.443,848.330,821.119,844.218,844.697,0.000,0.000,0
1508374309.445,852.785,818.172,844.423,858.474,0.000,0.000,0
1508374309.447,856.281,818.720,846.137,855.116,0.000,0.000,0
1508374309.449,854.156,817.007,844.697,845.863,0.000,0.000,0
1508374309.451,845.931,816.664,845.588,845.177,0.000,0.000,0
1508374309.453,846.411,815.293,847.165,845.657,0.000,0.000,0
1508374309.455,852.511,817.624,847.508,847.576,0.000,0.000,0
1508374309.457,855.184,820.845,847.508,858.611,0.000,0.000,0
1508374309.459,847.987,819.817,847.645,855.458,0.000,0.000,0
1508374309.461,844.629,816.801,846.274,848.467,0.000,0.000,0
1508374309.463,843.738,814.608,846.548,846.685,0.000,0.000,0
1508374309.465,849.358,813.374,844.012,845.451,0.000,0.000,0
1508374309.467,853.059,815.019,844.012,846.617,0.000,0.000,0
1508374309.469,850.523,817.487,845.040,845.794,0.000,0.000,0
1508374309.471,846.274,821.051,845.246,844.081,0.000,0.000,0
1508374309.473,846.959,823.930,847.713,845.040,0.000,0.000,0
1508374309.475,850.181,825.506,849.975,847.576,0.000,0.000,0
1508374309.477,857.172,822.833,851.620,864.369,0.000,0.000,0
1508374309.479,852.922,820.845,850.798,859.091,0.000,0.000,0
1508374309.481,849.495,821.325,848.536,850.181,0.000,0.000,0
1508374309.483,842.778,824.135,847.439,841.270,0.000,0.000,0
1508374309.485,841.270,823.518,846.822,843.532,0.000,0.000,0
1508374309.487,850.181,823.792,847.508,845.109,0.000,0.000,0
1508374309.489,851.894,822.970,845.863,844.355,0.000,0.000,0
1508374309.491,851.689,821.393,846.068,855.938,0.000,0.000,0
1508374309.493,848.604,824.409,845.383,849.084,0.000,0.000,0
1508374309.495,843.327,825.917,846.000,841.476,0.000,0.000,0
1508374309.497,844.629,822.559,847.987,838.049,0.000,0.000,0
1508374309.499,854.362,817.281,848.604,847.165,0.000,0.000,0
1508374309.501,856.829,816.527,848.536,853.950,0.000,0.000,0
1508374309.503,858.063,819.680,848.947,857.583,0.000,0.000,0
1508374309.505,856.624,819.132,846.822,852.511,0.000,0.000,0
1508374309.507,854.430,817.418,844.834,843.669,0.000,0.000,0
1508374309.509,852.511,818.241,843.875,842.504,0.000,0.000,0
1508374309.511,852.717,819.543,843.875,855.870,0.000,0.000,0
1508374309.513,850.935,822.285,845.383,858.885,0.000,0.000,0
1508374309.515,846.959,823.244,847.165,854.773,0.000,0.000,0
1508374309.517,846.891,823.998,847.439,845.109,0.000,0.000,0
1508374309.519,844.560,822.216,848.399,840.859,0.000,0.000,0
1508374309.521,845.451,822.216,848.741,842.504,0.000,0.000,0
1508374309.523,845.726,822.010,846.205,840.105,0.000,0.000,0
1508374309.525,856.761,821.599,844.629,850.318,0.000,0.000,0
1508374309.527,862.587,819.406,845.451,850.249,0.000,0.000,0
1508374309.529,853.539,820.777,843.943,841.202,0.000,0.000,0
1508374309.531,842.847,822.147,844.492,837.912,0.000,0.000,0
1508374309.533,840.654,817.487,846.274,846.617,0.000,0.000,0
1508374309.535,837.295,819.132,845.177,842.436,0.000,0.000,0
1508374309.537,842.641,823.998,846.822,839.831,0.000,0.000,0
1508374309.539,846.959,825.232,847.165,839.900,0.000,0.000,0
1508374309.541,849.427,824.889,846.205,842.984,0.000,0.000,0
1508374309.543,851.620,824.067,842.024,850.798,0.000,0.000,0
1508374309.545,849.838,824.478,839.762,843.532,0.000,0.000,0
1508374309.547,853.471,821.942,840.311,838.597,0.000,0.000,0
1508374309.549,853.196,820.640,840.928,835.924,0.000,0.000,0
1508374309.551,851.757,820.982,840.037,836.404,0.000,0.000,0
1508374309.553,844.972,823.244,842.436,839.557,0.000,0.000,0
1508374309.555,843.121,822.833,845.040,843.601,0.000,0.000,0
1508374309.557,847.302,822.353,846.000,846.479,0.000,0.000,0
1508374309.559,854.362,822.559,844.081,853.334,0.000,0.000,0
1508374309.561,855.801,826.054,842.436,847.439,0.000,0.000,0
1508374309.563,850.249,827.288,842.230,839.214,0.000,0.000,0
1508374309.565,854.019,827.082,843.943,841.750,0.000,0.000,0
1508374309.567,861.284,825.163,843.121,842.436,0.000,0.000,0
1508374309.569,861.490,824.067,841.819,842.778,0.000,0.000,0
1508374309.571,860.942,821.325,842.641,846.000,0.000,0.000,0
1508374309.573,855.595,822.285,843.738,841.819,0.000,0.000,0
1508374309.575,852.922,821.325,846.479,848.399,0.000,0.000,0
1508374309.577,851.277,821.051,846.068,847.302,0.000,0.000,0
1508374309.579,847.576,823.244,846.000,842.024,0.000,0.000,0
1508374309.581,854.156,827.494,846.822,844.355,0.000,0.000,0
1508374309.583,861.353,826.603,847.165,852.168,0.000,0.000,0
1508374309.585,861.353,823.861,847.165,851.689,0.000,0.000,0
1508374309.587,859.708,819.611,846.548,852.717,0.000,0.000,0
1508374309.589,859.228,819.749,847.233,853.471,0.000,0.000,0
1508374309.591,856.281,822.696,847.028,844.081,0.000,0.000,0
1508374309.593,855.253,825.575,849.632,851.277,0.000,0.000,0
1508374309.595,849.975,825.712,851.689,856.555,0.000,0.000,0
1508374309.597,852.580,826.054,850.592,856.418,0.000,0.000,0
1508374309.599,857.789,827.699,852.511,857.377,0.000,0.000,0
1508374309.601,858.885,825.986,853.196,857.309,0.000,0.000,0
1508374309.603,858.885,826.123,852.100,855.801,0.000,0.000,0
1508374309.605,860.667,824.478,849.221,857.035,0.000,0.000,0
1508374309.607,863.135,820.982,845.588,854.362,0.000,0.000,0
1508374309.609,863.615,819.406,846.822,858.748,0.000,0.000,0
1508374309.611,857.446,817.966,848.741,858.200,0.000,0.000,0
1508374309.613,849.769,816.870,848.810,853.882,0.000,0.000,0
1508374309.615,848.673,820.503,851.483,855.184,0.000,0.000,0
1508374309.617,852.580,819.406,852.374,858.268,0.000,0.000,0
1508374309.619,858.885,822.216,851.963,853.950,0.000,0.000,0
1508374309.621,863.066,823.930,853.608,853.813,0.000,0.000,0
1508374309.623,856.624,822.696,852.854,853.813,0.000,0.000,0
1508374309.625,859.091,823.107,852.443,856.966,0.000,0.000,0
1508374309.627,859.160,817.213,847.645,860.667,0.000,0.000,0
1508374309.629,852.305,815.910,846.411,859.708,0.000,0.000,0
1508374309.631,847.096,818.515,849.358,858.954,0.000,0.000,0
1508374309.633,844.012,821.873,850.386,849.632,0.000,0.000,0
1508374309.635,845.040,824.204,849.016,843.464,0.000,0.000,0
1508374309.637,847.919,824.409,847.370,844.081,0.000,0.000,0
1508374309.639,852.168,824.067,848.193,856.555,0.000,0.000,0
1508374309.641,852.991,820.228,845.863,855.116,0.000,0.000,0
1508374309.643,847.645,816.116,844.081,844.697,0.000,0.000,0
1508374309.645,843.190,814.197,842.984,841.202,0.000,0.000,0
1508374309.647,843.052,815.842,844.492,845.794,0.000,0.000,0
1508374309.649,844.492,818.789,846.479,847.165,0.000,0.000,0
1508374309.651,845.246,821.668,846.891,846.479,0.000,0.000,0
1508374309.653,842.847,819.954,848.604,846.411,0.000,0.000,0
1508374309.655,841.133,816.253,849.427,847.850,0.000,0.000,0
1508374309.657,843.327,817.692,850.523,844.355,0.000,0.000,0
1508374309.659,849.975,819.954,852.443,850.798,0.000,0.000,0
1508374309.661,845.383,822.010,851.620,845.040,0.000,0.000,0
1508374309.663,843.806,822.285,850.386,839.488,0.000,0.000,0
1508374309.665,843.327,822.285,849.221,835.444,0.000,0.000,0
1508374309.667,846.754,822.696,848.330,836.198,0.000,0.000,0
1508374309.669,846.685,821.119,846.754,837.021,0.000,0.000,0
1508374309.671,846.822,822.147,849.701,841.545,0.000,0.000,0
1508374309.673,843.532,825.232,850.798,845.246,0.000,0.000,0
1508374309.675,841.887,826.123,849.221,855.253,0.000,0.000,0
1508374309.677,845.246,825.095,848.399,854.910,0.000,0.000,0
1508374309.679,843.669,823.381,848.741,847.782,0.000,0.000,0
1508374309.681,847.028,825.095,848.673,846.274,0.000,0.000,0
1508374309.683,855.595,822.764,848.330,853.059,0.000,0.000,0
1508374309.685,854.499,825.506,847.302,851.140,0.000,0.000,0
1508374309.687,847.919,823.450,846.754,846.411,0.000,0.000,0
1508374309.689,846.000,819.132,845.109,842.504,0.000,0.000,0
1508374309.691,851.277,820.571,846.959,851.277,0.000,0.000,0
1508374309.693,851.003,820.365,846.754,860.188,0.000,0.000,0
1508374309.695,844.834,821.805,848.536,857.172,0.000,0.000,0
1508374309.697,838.871,820.228,849.427,846.822,0.000,0.000,0
1508374309.699,843.669,820.365,848.947,852.580,0.000,0.000,0
1508374309.701,852.580,823.039,846.822,856.898,0.000,0.000,0
1508374309.703,857.035,823.176,847.096,860.119,0.000,0.000,0
1508374309.705,859.639,821.188,848.604,861.421,0.000,0.000,0
1508374309.707,859.571,820.365,848.467,862.381,0.000,0.000,0
1508374309.709,857.377,820.503,846.685,867.042,0.000,0.000,0
1508374309.711,852.922,822.901,845.040,856.692,0.000,0.000,0
1508374309.713,840.585,822.833,844.492,849.701,0.000,0.000,0
1508374309.715,840.996,823.792,847.713,849.906,0.000,0.000,0
1508374309.717,844.560,822.627,850.249,852.991,0.000,0.000,0
1508374309.719,846.205,822.079,849.358,850.729,0.000,0.000,0
1508374309.721,843.258,816.184,846.822,851.072,0.000,0.000,0
1508374309.723,845.794,814.402,844.629,849.975,0.000,0.000,0
1508374309.725,849.564,815.910,844.560,856.829,0.000,0.000,0
1508374309.727,847.302,816.733,843.532,851.414,0.000,0.000,0
1508374309.729,840.311,819.611,842.984,844.492,0.000,0.000,0
1508374309.731,842.367,820.297,844.081,845.383,0.000,0.000,0
1508374309.733,852.717,818.104,844.834,848.673,0.000,0.000,0
1508374309.735,853.059,818.789,849.495,851.826,0.000,0.000,0
1508374309.737,852.168,821.188,851.277,859.297,0.000,0.000,0
1508374309.739,847.782,818.035,851.963,857.857,0.000,0.000,0
1508374309.741,850.112,817.487,850.455,856.212,0.000,0.000,0
1508374309.743,859.091,816.664,847.782,853.265,0.000,0.000,0
1508374309.745,862.655,819.543,847.302,850.523,0.000,0.000,0
1508374309.747,854.704,820.503,846.685,841.270,0.000,0.000,0
1508374309.749,858.817,822.285,848.124,847.576,0.000,0.000,0
1508374309.751,859.913,823.381,849.701,850.729,0.000,0.000,0
1508374309.753,853.059,821.668,849.290,852.443,0.000,0.000,0
1508374309.755,852.237,821.599,848.399,854.362,0.000,0.000,0
1508374309.757,852.443,821.051,848.399,860.325,0.000,0.000,0
1508374309.759,850.249,818.995,847.302,866.288,0.000,0.000,0
1508374309.761,848.193,818.446,847.850,858.748,0.000,0.000,0
1508374309.763,847.645,818.789,846.891,852.717,0.000,0.000,0
1508374309.765,852.785,819.337,846.479,852.922,0.000,0.000,0
1508374309.767,853.813,822.285,844.629,849.427,0.000,0.000,0
1508374309.769,849.153,823.313,845.931,849.084,0.000,0.000,0
1508374309.771,845.040,821.873,845.109,846.068,0.000,0.000,0
1508374309.773,848.193,818.720,846.411,853.196,0.000,0.000,0
1508374309.775,845.520,818.720,848.673,853.059,0.000,0.000,0
1508374309.777,843.601,818.515,849.221,851.483,0.000,0.000,0
1508374309.779,847.576,817.692,849.564,851.689,0.000,0.000,0
1508374309.781,843.258,816.938,849.564,844.492,0.000,0.000,0
1508374309.783,851.209,817.144,850.386,845.794,0.000,0.000,0
1508374309.785,854.979,817.829,851.003,848.741,0.000,0.000,0
1508374309.787,854.430,817.761,848.330,851.072,0.000,0.000,0
1508374309.789,854.293,818.378,848.810,854.841,0.000,0.000,0
1508374309.791,851.209,818.720,852.031,850.044,0.000,0.000,0
1508374309.793,846.959,820.365,853.471,848.262,0.000,0.000,0
1508374309.795,852.648,819.886,851.689,862.587,0.000,0.000,0
1508374309.797,852.168,820.708,850.318,856.624,0.000,0.000,0
1508374309.799,848.399,822.010,850.249,846.205,0.000,0.000,0
1508374309.801,851.072,820.640,851.620,849.016,0.000,0.000,0
1508374309.803,853.334,819.200,852.168,855.390,0.000,0.000,0
1508374309.805,862.381,823.313,849.495,863.820,0.000,0.000,0
1508374309.807,860.942,824.135,848.124,854.841,0.000,0.000,0
1508374309.809,849.564,822.079,848.604,840.311,0.000,0.000,0
1508374309.811,842.367,821.188,851.552,832.771,0.000,0.000,0
1508374309.813,847.576,821.393,852.305,842.984,0.000,0.000,0
1508374309.815,855.184,821.256,852.031,847.302,0.000,0.000,0
1508374309.817,852.305,823.587,851.689,846.205,0.000,0.000,0
1508374309.819,849.632,824.683,851.072,845.040,0.000,0.000,0
1508374309.821,851.209,826.054,850.866,845.109,0.000,0.000,0
1508374309.823,854.430,823.930,850.455,846.479,0.000,0.000,0
1508374309.825,859.365,819.543,849.564,850.044,0.000,0.000,0
1508374309.827,866.973,818.035,851.209,859.228,0.000,0.000,0
1508374309.829,864.574,817.281,850.798,862.587,0.000,0.000,0
1508374309.831,855.527,816.459,848.399,854.841,0.000,0.000,0
1508374309.833,849.564,815.568,850.318,853.813,0.000,0.000,0
1508374309.835,843.190,815.430,851.826,852.168,0.000,0.000,0
1508374309.837,846.274,820.571,852.922,854.430,0.000,0.000,0
1508374309.839,849.016,822.627,851.757,849.290,0.000,0.000,0
1508374309.841,852.854,824.683,851.414,856.418,0.000,0.000,0
1508374309.843,850.386,825.232,852.374,854.225,0.000,0.000,0
1508374309.845,848.536,824.889,847.439,847.576,0.000,0.000,0
1508374309.847,851.552,826.397,849.564,846.685,0.000,0.000,0
1508374309.849,855.801,826.534,849.290,852.648,0.000,0.000,0
1508374309.851,853.196,825.986,848.467,848.536,0.000,0.000,0
1508374309.853,852.374,825.849,850.592,850.386,0.000,0.000,0
1508374309.855,856.486,824.409,851.414,850.729,0.000,0.000,0
1508374309.857,852.785,823.450,850.523,849.838,0.000,0.000,0
1508374309.859,852.511,819.406,848.673,856.212,0.000,0.000,0
1508374309.861,848.673,816.870,849.906,851.003,0.000,0.000,0
1508374309.863,846.959,816.390,849.564,844.218,0.000,0.000,0
1508374309.865,854.225,821.119,849.016,844.560,0.000,0.000,0
1508374309.867,856.829,823.655,844.972,841.407,0.000,0.000,0
1508374309.869,852.991,822.901,843.738,845.040,0.000,0.000,0
1508374309.871,849.153,820.365,844.423,844.355,0.000,0.000,0
1508374309.873,844.492,819.680,845.726,844.081,0.000,0.000,0
1508374309.875,849.769,821.805,848.262,853.059,0.000,0.000,0
1508374309.877,851.689,822.422,847.576,852.374,0.000,0.000,0
1508374309.879,858.406,824.067,847.028,851.414,0.000,0.000,0
1508374309.881,858.474,824.752,847.850,844.081,0.000,0.000,0
1508374309.883,861.216,824.272,848.604,848.193,0.000,0.000,0
1508374309.885,858.817,823.381,846.411,845.588,0.000,0.000,0
1508374309.887,857.377,822.833,845.383,843.669,0.000,0.000,0
1508374309.889,862.929,822.970,845.726,848.262,0.000,0.000,0
1508374309.891,862.107,821.325,844.766,847.987,0.000,0.000,0
1508374309.893,856.486,822.216,845.863,844.903,0.000,0.000,0
1508374309.895,851.003,824.683,847.439,838.049,0.000,0.000,0
1508374309.897,854.567,825.506,849.221,852.991,0.000,0.000,0
1508374309.899,850.729,823.930,848.741,850.455,0.000,0.000,0
1508374309.901,849.221,820.640,848.604,839.900,0.000,0.000,0
1508374309.903,855.116,817.898,849.564,845.931,0.000,0.000,0
1508374309.905,856.829,815.225,850.112,850.729,0.000,0.000,0
1508374309.907,849.221,816.116,847.782,846.617,0.000,0.000,0
1508374309.909,846.205,818.035,847.508,844.218,0.000,0.000,0
1508374309.911,837.706,818.789,848.124,844.629,0.000,0.000,0
1508374309.913,833.525,820.365,848.056,850.112,0.000,0.000,0
1508374309.915,835.307,822.627,849.084,847.370,0.000,0.000,0
1508374309.917,832.292,821.188,849.084,840.037,0.000,0.000,0
1508374309.919,843.601,822.079,850.455,845.177,0.000,0.000,0
1508374309.921,848.330,822.696,849.221,849.906,0.000,0.000,0
1508374309.923,848.399,822.970,848.193,843.738,0.000,0.000,0
1508374309.925,850.044,819.611,846.411,844.492,0.000,0.000,0
1508374309.927,845.451,815.225,844.149,843.258,0.000,0.000,0
1508374309.929,844.766,811.935,845.726,845.657,0.000,0.000,0
1508374309.931,846.205,812.483,847.782,845.314,0.000,0.000,0
1508374309.933,849.358,814.334,849.358,849.084,0.000,0.000,0
1508374309.935,849.769,819.817,849.838,851.689,0.000,0.000,0
1508374309.937,847.096,826.123,847.987,851.689,0.000,0.000,0
1508374309.939,847.370,827.973,846.411,849.769,0.000,0.000,0
1508374309.941,853.950,826.054,847.645,852.991,0.000,0.000,0
1508374309.943,854.910,817.281,847.233,856.349,0.000,0.000,0
1508374309.945,851.483,816.664,847.645,851.757,0.000,0.000,0
1508374309.947,851.140,821.051,847.096,839.968,0.000,0.000,0
1508374309.949,857.103,823.998,846.548,841.887,0.000,0.000,0
1508374309.951,849.153,823.313,848.056,841.682,0.000,0.000,0
1508374309.953,841.956,820.982,849.564,844.081,0.000,0.000,0
1508374309.955,838.392,820.777,851.414,846.000,0.000,0.000,0
1508374309.957,846.205,820.708,849.016,849.564,0.000,0.000,0
1508374309.959,847.165,825.986,848.878,848.947,0.000,0.000,0
1508374309.961,842.984,826.123,846.000,845.657,0.000,0.000,0
1508374309.963,840.859,826.054,847.919,837.843,0.000,0.000,0
1508374309.965,848.124,826.191,847.028,841.339,0.000,0.000,0
1508374309.967,854.362,824.067,845.931,842.436,0.000,0.000,0
1508374309.969,856.007,821.256,842.161,839.077,0.000,0.000,0
1508374309.971,856.555,821.873,841.750,836.884,0.000,0.000,0
1508374309.973,851.483,820.708,844.903,843.738,0.000,0.000,0
1508374309.975,852.031,820.982,849.221,848.673,0.000,0.000,0
1508374309.977,856.075,820.365,849.975,857.377,0.000,0.000,0
1508374309.979,844.492,819.611,849.084,855.390,0.000,0.000,0
1508374309.981,843.327,819.200,848.536,849.495,0.000,0.000,0
1508374309.983,848.193,819.543,847.370,845.383,0.000,0.000,0
1508374309.985,845.657,820.845,845.794,839.077,0.000,0.000,0
1508374309.987,849.701,822.764,845.383,842.504,0.000,0.000,0
1508374309.989,857.926,820.777,844.972,856.761,0.000,0.000,0
1508374309.991,854.636,821.599,844.697,856.418,0.000,0.000,0
1508374309.993,837.295,823.930,845.588,846.000,0.000,0.000,0
1508374309.995,827.699,821.668,848.193,840.859,0.000,0.000,0
1508374309.997,836.610,822.764,849.016,842.847,0.000,0.000,0
1508374309.999,836.061,820.777,849.358,845.109,0.000,0.000,0
1508374310.001,835.513,819.406,847.439,839.694,0.000,0.000,0
1508374310.003,839.625,819.611,846.891,841.065,0.000,0.000,0
1508374310.005,841.750,819.406,845.177,837.912,0.000,0.000,0
1508374310.007,844.766,819.406,844.697,829.755,0.000,0.000,0
1508374310.009,843.738,821.873,847.576,827.905,0.000,0.000,0
1508374310.011,845.657,823.587,849.975,844.286,0.000,0.000,0
1508374310.013,844.629,823.313,852.031,846.754,0.000,0.000,0
1508374310.015,848.467,821.051,850.318,844.903,0.000,0.000,0
1508374310.017,855.116,821.805,851.963,845.246,0.000,0.000,0
1508374310.019,853.059,818.515,852.100,839.557,0.000,0.000,0
1508374310.021,843.258,815.568,848.878,834.348,0.000,0.000,0
1508374310.023,835.787,813.991,844.972,839.214,0.000,0.000,0
1508374310.025,840.859,815.156,845.314,841.407,0.000,0.000,0
1508374310.027,847.919,815.225,844.560,843.601,0.000,0.000,0
1508374310.029,845.794,815.910,845.588,836.541,0.000,0.000,0
1508374310.031,847.165,816.870,849.564,846.000,0.000,0.000,0
1508374310.033,847.233,818.720,849.358,852.168,0.000,0.000,0
1508374310.035,847.713,823.998,849.221,853.402,0.000,0.000,0
1508374310.037,851.414,825.712,849.701,852.580,0.000,0.000,0
1508374310.039,851.346,824.204,849.084,852.922,0.000,0.000,0
1508374310.041,850.798,820.365,847.713,849.221,0.000,0.000,0
1508374310.043,855.527,817.761,845.863,852.991,0.000,0.000,0
1508374310.045,855.664,817.075,844.697,848.262,0.000,0.000,0
1508374310.047,854.362,816.870,843.464,847.645,0.000,0.000,0
1508374310.049,847.233,817.350,845.177,841.545,0.000,0.000,0
1508374310.051,843.121,820.571,845.794,841.545,0.000,0.000,0
1508374310.053,839.146,824.409,845.863,840.174,0.000,0.000,0
1508374310.055,837.295,826.191,847.439,836.335,0.000,0.000,0
1508374310.057,842.093,819.954,847.028,845.931,0.000,0.000,0
1508374310.059,839.214,815.362,849.427,845.383,0.000,0.000,0
1508374310.061,838.803,813.717,846.479,838.460,0.000,0.000,0
1508374310.063,841.339,820.160,847.713,835.856,0.000,0.000,0
1508374310.065,853.471,822.490,845.520,841.407,0.000,0.000,0
1508374310.067,853.676,820.365,842.573,839.351,0.000,0.000,0
1508374310.069,854.704,820.982,843.327,843.327,0.000,0.000,0
1508374310.071,855.321,821.325,845.726,848.330,0.000,0.000,0
1508374310.073,849.769,822.147,846.479,848.947,0.000,0.000,0
1508374310.075,851.414,823.039,848.124,857.720,0.000,0.000,0
1508374310.077,852.580,822.901,847.096,864.094,0.000,0.000,0
1508374310.079,847.919,822.696,847.165,854.910,0.000,0.000,0
1508374310.081,844.766,823.450,850.181,846.891,0.000,0.000,0
1508374310.083,848.193,822.010,850.798,852.511,0.000,0.000,0
1508374310.085,852.305,822.285,849.495,852.511,0.000,0.000,1
1508374310.087,856.966,822.901,848.124,851.277,0.000,0.000,0
1508374310.089,862.929,822.764,849.358,852.100,0.000,0.000,0
1508374310.091,862.518,822.627,850.318,862.244,0.000,0.000,0
1508374310.093,852.443,823.107,853.265,860.462,0.000,0.000,0
1508374310.095,847.713,824.341,852.443,853.471,0.000,0.000,0
1508374310.097,848.262,830.372,854.225,848.878,0.000,0.000,0
1508374310.099,858.748,829.413,853.265,855.184,0.000,0.000,0
1508374310.101,860.393,823.176,851.757,854.499,0.000,0.000,0
1508374310.103,861.421,819.886,851.140,857.309,0.000,0.000,0
1508374310.105,863.066,818.309,851.277,857.035,0.000,0.000,0
1508374310.107,863.203,817.966,851.346,855.458,0.000,0.000,0
1508374310.109,864.985,817.487,848.741,860.736,0.000,0.000,0
1508374310.111,853.265,818.583,847.850,853.059,0.000,0.000,0
1508374310.113,838.597,819.474,844.972,839.694,0.000,0.000,0
1508374310.115,840.379,820.023,847.508,840.791,0.000,0.000,0
1508374310.117,845.520,818.378,849.290,847.233,0.000,0.000,0
1508374310.119,849.975,822.285,851.277,846.891,0.000,0.000,0
1508374310.121,852.100,824.546,851.277,845.931,0.000,0.000,0
1508374310.123,848.399,823.244,850.592,847.165,0.000,0.000,0
1508374310.125,856.898,821.531,850.386,853.334,0.000,0.000,0
1508374310.127,859.091,820.845,851.620,848.810,0.000,0.000,0
1508374310.129,849.701,821.736,852.580,843.532,0.000,0.000,0
1508374310.131,844.903,823.313,853.471,841.956,0.000,0.000,0
1508374310.133,843.464,825.300,852.031,844.286,0.000,0.000,0
1508374310.135,847.508,826.397,849.290,844.149,0.000,0.000,0
1508374310.137,848.193,825.506,848.262,846.274,0.000,0.000,0
1508374310.139,846.342,822.010,847.233,845.588,0.000,0.000,0
1508374310.141,849.358,819.611,847.439,853.745,0.000,0.000,0
1508374310.143,845.246,817.487,848.399,847.576,0.000,0.000,0
1508374310.145,846.617,818.926,846.548,841.339,0.000,0.000,0
1508374310.147,848.673,822.147,843.738,842.093,0.000,0.000,0
1508374310.149,851.894,822.216,845.177,848.536,0.000,0.000,0
1508374310.151,847.096,818.378,845.177,848.330,0.000,0.000,0
1508374310.153,851.277,818.789,845.177,848.673,0.000,0.000,0
1508374310.155,852.305,820.845,846.068,849.701,0.000,0.000,0
1508374310.157,846.617,819.132,848.673,847.302,0.000,0.000,0
1508374310.159,845.726,814.608,847.645,854.430,0.000,0.000,0
1508374310.161,841.133,815.225,845.246,846.342,0.000,0.000,0
1508374310.163,840.722,820.914,847.096,839.968,0.000,0.000,0
1508374310.165,850.592,822.285,847.508,845.246,0.000,0.000,0
1508374310.167,857.583,820.982,845.109,846.274,0.000,0.000,0
1508374310.169,855.390,818.378,844.149,842.230,0.000,0.000,0
1508374310.171,842.778,820.091,844.149,847.165,0.000,0.000,0
1508374310.173,836.541,823.381,844.012,850.660,0.000,0.000,0
1508374310.175,838.666,822.901,844.218,853.950,0.000,0.000,0
1508374310.177,845.314,821.325,845.177,850.592,0.000,0.000,0
1508374310.179,844.218,820.845,844.012,848.124,0.000,0.000,0
1508374310.181,839.694,822.353,843.806,850.044,0.000,0.000,0
1508374310.183,842.984,823.998,843.532,851.414,0.000,0.000,0
1508374310.185,844.629,819.543,843.601,848.193,0.000,0.000,0
1508374310.187,847.028,815.088,845.109,848.056,0.000,0.000,0
1508374310.189,850.660,813.306,846.411,850.386,0.000,0.000,0
1508374310.191,854.088,817.213,844.697,859.502,0.000,0.000,0
1508374310.193,850.181,821.668,845.109,853.539,0.000,0.000,0
1508374310.195,840.105,824.546,843.943,842.847,0.000,0.000,0
1508374310.197,833.320,823.450,845.520,836.335,0.000,0.000,0
1508374310.199,844.697,821.462,847.782,842.778,0.000,0.000,0
1508374310.201,847.439,819.269,848.124,842.367,0.000,0.000,0
1508374310.203,846.342,817.966,848.399,844.423,0.000,0.000,0
1508374310.205,847.508,817.418,848.810,846.068,0.000,0.000,0
1508374310.207,851.140,816.047,846.342,849.427,0.000,0.000,0
1508374310.209,851.414,814.128,844.149,840.928,0.000,0.000,0
1508374310.211,848.124,813.923,840.722,840.585,0.000,0.000,0
1508374310.213,839.351,818.857,844.218,837.912,0.000,0.000,0
1508374310.215,848.741,823.655,848.467,850.866,0.000,0.000,0
1508374310.217,849.564,825.506,849.290,853.745,0.000,0.000,0
1508374310.219,851.757,825.712,847.850,849.564,0.000,0.000,0
1508374310.221,853.128,825.437,846.479,847.302,0.000,0.000,0
1508374310.223,856.281,825.780,847.645,848.810,0.000,0.000,0
1508374310.225,859.022,823.244,846.137,848.741,0.000,0.000,0
1508374310.227,865.328,820.640,846.205,857.446,0.000,0.000,0
1508374310.229,861.764,818.857,844.355,850.866,0.000,0.000,0
1508374310.231,856.144,819.063,844.286,849.495,0.000,0.000,0
1508374310.233,845.931,818.172,845.109,852.374,0.000,0.000,0
1508374310.235,844.423,820.228,846.137,850.112,0.000,0.000,0
1508374310.237,845.451,821.325,848.741,849.495,0.000,0.000,0
1508374310.239,841.750,818.720,848.536,848.399,0.000,0.000,0
1508374310.241,845.040,818.172,846.548,845.863,0.000,0.000,0
1508374310.243,846.342,819.337,844.560,846.342,0.000,0.000,0
1508374310.245,845.177,817.692,844.629,847.782,0.000,0.000,0
1508374310.247,849.221,813.511,845.314,849.495,0.000,0.000,0
1508374310.249,853.676,814.402,846.000,847.987,0.000,0.000,0
1508374310.251,850.592,818.104,844.492,840.037,0.000,0.000,0
1508374310.253,845.040,820.914,846.685,843.190,0.000,0.000,0
1508374310.255,840.996,819.406,848.262,845.451,0.000,0.000,0
1508374310.257,846.068,817.555,850.592,849.769,0.000,0.000,0
1508374310.259,850.592,818.652,849.769,860.188,0.000,0.000,0
1508374310.261,848.741,821.256,849.564,856.555,0.000,0.000,0
1508374310.263,838.940,820.503,848.673,841.613,0.000,0.000,0
1508374310.265,843.532,818.995,847.576,842.573,0.000,0.000,0
1508374310.267,848.810,818.172,846.479,843.190,0.000,0.000,0
1508374310.269,847.165,818.378,847.439,846.959,0.000,0.000,0
1508374310.271,841.750,818.857,848.193,848.878,0.000,0.000,0
1508374310.273,833.936,819.406,849.290,850.455,0.000,0.000,0
1508374310.275,831.195,819.200,850.660,859.434,0.000,0.000,0
1508374310.277,829.893,820.571,849.906,852.168,0.000,0.000,0
1508374310.279,830.989,821.462,848.947,841.407,0.000,0.000,0
1508374310.281,839.146,823.313,850.935,842.161,0.000,0.000,0
1508374310.283,846.068,821.873,851.620,850.044,0.000,0.000,0
1508374310.285,849.975,820.434,850.249,848.878,0.000,0.000,0
1508374310.287,848.124,817.418,847.439,842.984,0.000,0.000,0
1508374310.289,854.293,817.007,848.604,844.697,0.000,0.000,0
1508374310.291,851.140,816.733,847.302,837.980,0.000,0.000,0
1508374310.293,848.399,818.926,846.548,840.174,0.000,0.000,0
1508374310.295,840.791,816.733,847.028,838.049,0.000,0.000,0
1508374310.297,839.009,815.225,845.520,834.965,0.000,0.000,0
1508374310.299,837.364,815.705,843.669,838.529,0.000,0.000,0
1508374310.301,838.597,817.418,845.451,834.690,0.000,0.000,0
1508374310.303,847.645,816.390,847.028,842.230,0.000,0.000,0
1508374310.305,845.794,808.439,846.068,838.186,0.000,0.000,0
1508374310.307,846.822,805.766,843.738,832.703,0.000,0.000,0
1508374310.309,847.165,807.685,842.641,836.747,0.000,0.000,0
1508374310.311,848.467,815.979,847.165,842.024,0.000,0.000,0
1508374310.313,858.131,821.942,850.249,859.297,0.000,0.000,0
1508374310.315,852.168,824.752,851.620,851.072,0.000,0.000,0
1508374310.317,850.935,826.671,852.785,847.165,0.000,0.000,0
1508374310.319,855.938,827.357,850.044,848.056,0.000,0.000,0
1508374310.321,856.692,824.821,847.165,846.274,0.000,0.000,0
1508374310.323,861.421,823.450,847.165,846.617,0.000,0.000,0
1508374310.325,858.063,822.422,847.508,846.548,0.000,0.000,0
1508374310.327,858.268,821.462,849.084,849.221,0.000,0.000,0
1508374310.329,854.910,821.393,845.794,843.532,0.000,0.000,0
1508374310.331,849.290,823.176,844.492,838.323,0.000,0.000,0
1508374310.333,840.928,821.531,844.903,838.803,0.000,0.000,0
1508374310.335,841.545,821.599,848.536,841.545,0.000,0.000,0
1508374310.337,848.193,823.792,848.810,844.355,0.000,0.000,0
1508374310.339,849.564,821.873,848.878,843.875,0.000,0.000,0
1508374310.341,850.935,820.914,848.399,843.052,0.000,0.000,0
1508374310.343,852.031,818.515,848.193,847.028,0.000,0.000,0
1508374310.345,863.478,818.652,848.056,860.736,0.000,0.000,0
1508374310.347,860.667,820.160,845.794,851.689,0.000,0.000,0
1508374310.349,856.144,821.462,844.834,844.012,0.000,0.000,0
1508374310.351,854.019,822.490,846.205,847.439,0.000,0.000,0
1508374310.353,849.495,822.490,846.754,847.919,0.000,0.000,0
1508374310.355,853.196,820.228,847.850,856.898,0.000,0.000,0
1508374310.357,853.608,820.914,847.919,852.854,0.000,0.000,0
1508374310.359,847.096,820.571,847.576,846.479,0.000,0.000,0
1508374310.361,849.495,823.861,849.564,848.536,0.000,0.000,0
1508374310.363,856.555,827.014,850.044,852.717,0.000,0.000,0
1508374310.365,856.898,821.805,849.769,853.539,0.000,0.000,0
1508374310.367,855.321,820.434,847.782,848.947,0.000,0.000,0
1508374310.369,856.966,823.176,848.330,848.399,0.000,0.000,0
1508374310.371,858.885,827.562,849.495,853.059,0.000,0.000,0
1508374310.373,858.817,830.167,849.906,855.458,0.000,0.000,0
1508374310.375,851.826,830.509,850.455,852.168,0.000,0.000,0
1508374310.377,853.950,828.796,849.701,859.091,0.000,0.000,0
1508374310.379,847.096,825.986,848.124,853.539,0.000,0.000,0
1508374310.381,846.685,821.805,848.193,849.427,0.000,0.000,0
1508374310.383,853.745,818.104,850.112,850.455,0.000,0.000,0
1508374310.385,858.406,817.144,850.112,851.689,0.000,0.000,0
1508374310.387,854.362,821.942,846.342,849.427,0.000,0.000,0
1508374310.389,850.318,822.285,843.806,848.399,0.000,0.000,0
1508374310.391,849.564,819.063,845.657,850.592,0.000,0.000,0
1508374310.393,846.205,820.777,849.906,850.455,0.000,0.000,0
1508374310.395,844.903,822.833,852.168,849.906,0.000,0.000,0
1508374310.397,851.346,825.917,852.511,854.362,0.000,0.000,0
1508374310.399,853.059,827.219,849.358,852.100,0.000,0.000,0
1508374310.401,852.580,824.889,850.112,850.729,0.000,0.000,0
1508374310.403,858.611,822.696,851.483,852.237,0.000,0.000,0
1508374310.405,865.328,820.091,850.112,850.523,0.000,0.000,0
1508374310.407,866.768,818.583,848.124,846.068,0.000,0.000,0
1508374310.409,858.268,817.487,847.233,846.068,0.000,0.000,0
1508374310.411,856.144,819.406,846.548,852.443,0.000,0.000,0
1508374310.413,850.798,821.668,848.262,847.645,0.000,0.000,0
1508374310.415,845.246,823.381,850.523,846.754,0.000,0.000,0
1508374310.417,846.548,823.861,850.592,850.044,0.000,0.000,0
1508374310.419,846.274,819.200,849.084,850.523,0.000,0.000,0
1508374310.421,851.757,813.032,847.645,852.854,0.000,0.000,0
1508374310.423,860.325,813.032,849.358,851.757,0.000,0.000,0
1508374310.425,864.643,814.608,848.330,847.782,0.000,0.000,0
1508374310.427,857.377,822.422,848.193,843.601,0.000,0.000,0
1508374310.429,850.455,824.272,842.710,845.520,0.000,0.000,0
1508374310.431,850.592,823.107,843.121,849.701,0.000,0.000,0
1508374310.433,851.140,821.736,843.875,850.660,0.000,0.000,0
1508374310.435,848.536,820.914,844.903,846.342,0.000,0.000,0
1508374310.437,849.769,822.627,846.685,844.012,0.000,0.000,0
1508374310.439,850.318,820.914,844.629,843.121,0.000,0.000,0
1508374310.441,848.399,821.736,841.133,841.339,0.000,0.000,0
1508374310.443,850.386,821.668,840.859,843.806,0.000,0.000,0
1508374310.445,852.785,819.337,843.258,849.084,0.000,0.000,0
1508374310.447,856.692,815.362,841.819,853.745,0.000,0.000,0
1508374310.449,849.358,815.019,840.996,843.806,0.000,0.000,0
1508374310.451,845.588,818.172,841.133,836.335,0.000,0.000,0
1508374310.453,844.560,819.543,844.629,838.255,0.000,0.000,0
1508374310.455,845.794,819.886,846.137,848.467,0.000,0.000,0
1508374310.457,847.028,818.857,846.617,847.370,0.000,0.000,0
1508374310.459,843.121,818.241,845.657,836.061,0.000,0.000,0
1508374310.461,838.186,820.228,842.298,825.849,0.000,0.000,0
1508374310.463,845.383,819.954,843.121,832.634,0.000,0.000,0
1508374310.465,847.782,818.995,842.298,838.803,0.000,0.000,0
1508374310.467,851.140,817.281,841.750,842.573,0.000,0.000,0
1508374310.469,854.019,817.692,841.270,846.068,0.000,0.000,0
1508374310.471,856.829,822.353,843.532,848.467,0.000,0.000,0
1508374310.473,851.689,826.877,844.903,847.439,0.000,0.000,0
1508374310.475,850.112,826.191,846.891,851.483,0.000,0.000,0
1508374310.477,850.386,823.381,847.165,850.729,0.000,0.000,0
1508374310.479,852.785,818.995,845.863,852.374,0.000,0.000,0
1508374310.481,854.225,817.281,845.314,850.318,0.000,0.000,0
1508374310.483,846.617,816.253,845.177,846.685,0.000,0.000,0
1508374310.485,852.305,816.938,845.726,848.673,0.000,0.000,0
1508374310.487,859.502,814.677,846.068,854.499,0.000,0.000,0
1508374310.489,860.599,816.253,847.165,864.094,0.000,0.000,0
1508374310.491,851.689,818.926,844.492,855.732,0.000,0.000,0
1508374310.493,848.673,820.365,842.436,850.455,0.000,0.000,0
1508374310.495,837.021,819.680,845.040,843.601,0.000,0.000,0
1508374310.497,845.314,820.503,847.370,853.745,0.000,0.000,0
1508374310.499,850.798,823.655,849.358,858.680,0.000,0.000,0
1508374310.501,849.906,825.575,848.947,853.813,0.000,0.000,0
1508374310.503,849.906,823.792,848.193,846.411,0.000,0.000,0
1508374310.505,854.567,823.518,846.891,845.520,0.000,0.000,0
1508374310.507,859.091,821.393,848.741,848.810,0.000,0.000,0
1508374310.509,856.418,818.309,848.056,855.595,0.000,0.000,0
1508374310.511,845.246,819.611,847.508,854.362,0.000,0.000,0
1508374310.513,842.778,820.228,849.016,852.511,0.000,0.000,0
1508374310.515,840.037,823.313,848.810,845.451,0.000,0.000,0
1508374310.517,838.460,820.914,848.056,839.831,0.000,0.000,0
1508374310.519,841.956,821.393,848.741,840.448,0.000,0.000,0
1508374310.521,848.878,822.147,850.249,845.451,0.000,0.000,0
1508374310.523,857.994,821.873,847.850,848.124,0.000,0.000,0
1508374310.525,863.203,818.789,847.439,848.467,0.000,0.000,0
1508374310.527,857.103,818.789,847.302,842.710,0.000,0.000,0
1508374310.529,855.732,819.132,848.604,841.545,0.000,0.000,0
1508374310.531,862.929,819.337,850.455,853.745,0.000,0.000,0
1508374310.533,856.349,820.982,850.318,855.458,0.000,0.000,0
1508374310.535,852.374,822.627,851.209,854.567,0.000,0.000,0
1508374310.537,849.701,821.668,850.592,855.458,0.000,0.000,0
1508374310.539,847.302,818.104,850.249,854.019,0.000,0.000,0
1508374310.541,851.414,815.225,851.963,854.567,0.000,0.000,0
1508374310.543,861.353,816.664,850.935,864.574,0.000,0.000,0
1508374310.545,864.780,816.801,850.181,860.599,0.000,0.000,0
1508374310.547,857.583,818.926,847.439,851.414,0.000,0.000,0
1508374310.549,856.555,819.680,847.165,852.237,0.000,0.000,0
1508374310.551,858.611,822.147,845.520,852.511,0.000,0.000,0
1508374310.553,857.994,824.683,846.274,855.253,0.000,0.000,0
1508374310.555,845.657,824.067,846.274,856.898,0.000,0.000,0
1508374310.557,843.258,823.381,846.685,858.131,0.000,0.000,0
1508374310.559,838.186,822.285,846.822,850.112,0.000,0.000,0
1508374310.561,841.887,821.462,844.012,840.928,0.000,0.000,0
1508374310.563,844.081,823.107,847.096,835.170,0.000,0.000,0
1508374310.565,854.499,824.067,847.096,841.750,0.000,0.000,0
1508374310.567,856.349,820.503,845.246,837.912,0.000,0.000,0
1508374310.569,852.922,815.979,846.822,839.557,0.000,0.000,0
1508374310.571,850.866,818.515,847.439,841.339,0.000,0.000,0
1508374310.573,847.987,821.736,848.193,847.987,0.000,0.000,0
1508374310.575,854.156,821.051,848.124,859.982,0.000,0.000,0
1508374310.577,848.604,819.954,846.617,851.552,0.000,0.000,0
1508374310.579,839.420,819.132,845.314,842.915,0.000,0.000,0
1508374310.581,842.778,819.543,847.302,841.750,0.000,0.000,0
1508374310.583,845.520,820.571,848.399,846.959,0.000,0.000,0
1508374310.585,847.919,820.160,849.358,849.016,0.000,0.000,0
1508374310.587,857.035,821.051,847.233,849.701,0.000,0.000,0
1508374310.589,855.047,821.805,845.451,847.645,0.000,0.000,0
1508374310.591,851.209,820.982,845.040,852.991,0.000,0.000,0
1508374310.593,847.645,821.393,847.028,849.221,0.000,0.000,0
1508374310.595,849.016,820.777,847.028,844.218,0.000,0.000,0
1508374310.597,848.947,821.188,847.096,841.819,0.000,0.000,0
1508374310.599,841.750,818.309,845.863,844.629,0.000,0.000,0
1508374310.601,840.654,817.007,844.903,840.859,0.000,0.000,0
1508374310.603,840.996,813.991,844.697,842.641,0.000,0.000,0
1508374310.605,845.109,815.019,845.931,841.407,0.000,0.000,0
1508374310.607,848.673,817.007,845.383,845.588,0.000,0.000,0
1508374310.609,849.016,818.378,845.109,852.031,0.000,0.000,0
1508374310.611,846.000,818.241,846.068,845.931,0.000,0.000,0
1508374310.613,838.117,818.720,847.576,834.279,0.000,0.000,0
1508374310.615,835.993,820.228,847.508,837.706,0.000,0.000,0
1508374310.617,838.871,824.752,847.508,840.105,0.000,0.000,0
1508374310.619,837.021,824.409,848.741,838.117,0.000,0.000,0
1508374310.621,835.444,820.023,849.153,837.638,0.000,0.000,0
1508374310.623,838.460,818.515,850.729,839.214,0.000,0.000,0
1508374310.625,843.738,816.870,849.906,851.826,0.000,0.000,0
1508374310.627,845.040,816.870,849.975,847.508,0.000,0.000,0
1508374310.629,847.096,816.459,848.262,836.267,0.000,0.000,0
1508374310.631,848.262,818.789,846.342,836.473,0.000,0.000,0
1508374310.633,840.996,819.817,848.878,831.538,0.000,0.000,0
1508374310.635,840.311,821.736,850.181,834.965,0.000,0.000,0
1508374310.637,840.585,822.422,848.399,837.021,0.000,0.000,0
1508374310.639,836.473,823.244,848.604,836.198,0.000,0.000,0
1508374310.641,837.706,819.132,848.330,848.604,0.000,0.000,1
1508374310.643,838.803,818.172,849.221,845.588,0.000,0.000,0
1508374310.645,836.952,819.406,848.467,834.211,0.000,0.000,0
1508374310.647,845.177,823.244,848.330,833.936,0.000,0.000,0
1508374310.649,852.511,820.777,847.096,841.339,0.000,0.000,0
1508374310.651,853.402,819.886,847.028,841.819,0.000,0.000,0
1508374310.653,849.769,819.886,850.112,849.975,0.000,0.000,0
1508374310.655,844.423,816.938,850.249,845.177,0.000,0.000,0
1508374310.657,847.919,814.882,849.358,849.016,0.000,0.000,0
1508374310.659,844.766,819.200,847.370,847.987,0.000,0.000,0
1508374310.661,844.355,822.970,846.959,839.831,0.000,0.000,0
1508374310.663,853.128,821.736,849.701,846.959,0.000,0.000,0
1508374310.665,852.991,821.325,847.233,842.915,0.000,0.000,0
1508374310.667,850.044,822.559,846.479,838.460,0.000,0.000,0
1508374310.669,846.891,824.889,845.863,836.335,0.000,0.000,0
1508374310.671,842.436,824.409,843.121,832.840,0.000,0.000,0
1508374310.673,842.367,826.740,842.778,834.690,0.000,0.000,0
1508374310.675,844.697,828.727,846.617,842.641,0.000,0.000,0
1508374310.677,845.109,828.248,847.508,852.922,0.000,0.000,0
1508374310.679,843.669,827.014,847.576,847.302,0.000,0.000,0
1508374310.681,844.081,826.671,847.165,842.161,0.000,0.000,0
1508374310.683,848.673,824.821,844.903,839.762,0.000,0.000,0
1508374310.685,851.894,822.559,843.738,844.218,0.000,0.000,0
1508374310.687,852.580,819.200,843.532,851.003,0.000,0.000,0
1508374310.689,844.766,816.184,843.190,855.184,0.000,0.000,0
1508374310.691,830.784,814.334,841.202,847.987,0.000,0.000,0
1508374310.693,834.348,816.870,843.601,843.875,0.000,0.000,0
1508374310.695,833.114,819.406,847.165,835.719,0.000,0.000,0
1508374310.697,842.778,821.531,850.112,840.791,0.000,0.000,0
1508374310.699,852.237,821.942,848.878,847.028,0.000,0.000,0
1508374310.701,852.100,824.683,846.000,844.560,0.000,0.000,0
1508374310.703,846.068,825.163,844.834,843.464,0.000,0.000,0
1508374310.705,847.919,827.014,846.548,848.947,0.000,0.000,0
1508374310.707,852.922,828.042,845.726,849.906,0.000,0.000,0
1508374310.709,855.938,825.232,844.492,857.515,0.000,0.000,0
1508374310.711,849.084,822.901,846.685,856.486,0.000,0.000,0
1508374310.713,840.722,824.821,846.068,848.399,0.000,0.000,0
1508374310.715,842.984,828.316,846.548,852.374,0.000,0.000,0
1508374310.717,844.286,827.219,847.096,850.523,0.000,0.000,0
1508374310.719,842.984,822.285,849.221,847.782,0.000,0.000,0
1508374310.721,847.439,823.381,849.564,846.274,0.000,0.000,0
1508374310.723,852.717,823.244,845.246,842.367,0.000,0.000,0
1508374310.725,857.240,822.422,843.464,833.457,0.000,0.000,0
1508374310.727,852.785,823.244,843.190,823.861,0.000,0.000,0
1508374310.729,852.511,826.945,845.383,824.958,0.000,0.000,0
1508374310.731,853.265,826.603,844.081,836.815,0.000,0.000,0
1508374310.733,848.604,823.587,844.081,839.283,0.000,0.000,0
1508374310.735,846.754,823.655,845.177,836.541,0.000,0.000,0
1508374310.737,847.096,824.752,845.931,833.799,0.000,0.000,0
1508374310.739,844.766,823.450,845.863,836.884,0.000,0.000,0
1508374310.741,847.233,822.285,847.645,845.520,0.000,0.000,0
1508374310.743,853.813,823.518,846.000,857.515,0.000,0.000,0
1508374310.745,857.857,822.901,847.028,848.604,0.000,0.000,0
1508374310.747,855.595,822.285,846.822,843.875,0.000,0.000,0
1508374310.749,853.265,822.353,847.302,845.177,0.000,0.000,0
1508374310.751,849.427,823.039,847.370,845.794,0.000,0.000,0
1508374310.753,850.660,824.683,849.564,850.592,0.000,0.000,0
1508374310.755,852.785,825.369,850.044,851.483,0.000,0.000,0
1508374310.757,849.495,818.241,847.302,844.218,0.000,0.000,0
1508374310.759,846.754,817.487,849.701,840.996,0.000,0.000,0
1508374310.761,843.258,818.172,850.455,832.634,0.000,0.000,0
1508374310.763,848.399,822.696,848.673,832.634,0.000,0.000,0
1508374310.765,856.418,824.067,847.645,839.968,0.000,0.000,0
1508374310.767,852.922,821.393,846.891,840.585,0.000,0.000,0
1508374310.769,851.483,820.982,846.891,840.928,0.000,0.000,0
1508374310.771,853.471,824.546,846.891,848.124,0.000,0.000,0
1508374310.773,850.455,825.300,846.891,848.810,0.000,0.000,0
1508374310.775,849.427,822.627,845.726,853.265,0.000,0.000,0
1508374310.777,847.987,821.119,846.891,850.455,0.000,0.000,0
1508374310.779,849.221,821.393,846.205,845.040,0.000,0.000,0
1508374310.781,847.850,821.942,845.451,845.109,0.000,0.000,0
1508374310.783,851.003,820.228,845.726,849.153,0.000,0.000,0
1508374310.785,850.729,818.241,842.915,847.302,0.000,0.000,0
1508374310.787,847.645,815.705,839.694,841.202,0.000,0.000,0
1508374310.789,844.081,815.705,839.146,838.734,0.000,0.000,0
1508374310.791,843.121,815.293,841.270,848.124,0.000,0.000,0
1508374310.793,839.283,818.241,843.121,848.330,0.000,0.000,0
1508374310.795,833.045,822.079,843.190,840.311,0.000,0.000,0
1508374310.797,831.949,824.752,843.464,835.650,0.000,0.000,0
1508374310.799,840.242,826.877,844.149,838.392,0.000,0.000,0
1508374310.801,849.358,824.478,844.081,839.900,0.000,0.000,0
1508374310.803,848.741,822.559,843.464,841.407,0.000,0.000,0
1508374310.805,851.963,822.764,844.218,841.133,0.000,0.000,0
1508374310.807,861.833,818.652,842.024,845.588,0.000,0.000,0
1508374310.809,864.506,816.390,842.984,843.258,0.000,0.000,0
1508374310.811,865.123,817.555,842.573,844.560,0.000,0.000,0
1508374310.813,850.660,823.381,844.355,840.516,0.000,0.000,0
1508374310.815,846.342,826.534,846.411,846.000,0.000,0.000,0
1508374310.817,844.149,826.397,846.891,847.028,0.000,0.000,0
1508374310.819,848.947,826.191,847.439,845.246,0.000,0.000,0
1508374310.821,856.144,825.095,846.548,845.109,0.000,0.000,0
1508374310.823,861.010,821.531,845.177,853.882,0.000,0.000,0
1508374310.825,861.079,821.325,844.149,849.016,0.000,0.000,0
1508374310.827,857.652,820.023,842.984,841.819,0.000,0.000,0
1508374310.829,849.016,820.982,846.959,833.388,0.000,0.000,0
1508374310.831,851.689,823.176,849.153,839.625,0.000,0.000,0
1508374310.833,853.539,823.587,847.165,840.996,0.000,0.000,0
1508374310.835,855.184,827.699,847.919,841.613,0.000,0.000,0
1508374310.837,854.636,828.659,849.495,846.205,0.000,0.000,0
1508374310.839,849.769,826.466,850.798,843.052,0.000,0.000,0
1508374310.841,851.140,823.381,850.660,851.757,0.000,0.000,0
1508374310.843,850.181,822.422,849.495,848.741,0.000,0.000,0
1508374310.845,853.471,821.873,849.016,846.411,0.000,0.000,0
1508374310.847,856.966,820.845,848.810,844.697,0.000,0.000,0
1508374310.849,859.160,816.801,847.850,849.427,0.000,0.000,0
1508374310.851,861.079,819.749,847.850,853.608,0.000,0.000,0
1508374310.853,864.369,825.643,847.370,856.692,0.000,0.000,0
1508374310.855,856.898,825.643,848.056,853.265,0.000,0.000,0
1508374310.857,855.801,821.873,847.508,856.624,0.000,0.000,0
1508374310.859,846.959,820.023,847.439,844.560,0.000,0.000,0
1508374310.861,844.423,819.132,848.878,846.891,0.000,0.000,0
1508374310.863,844.081,822.696,848.604,842.778,0.000,0.000,0
1508374310.865,861.833,824.409,847.508,846.754,0.000,0.000,0
1508374310.867,867.864,822.285,846.822,845.109,0.000,0.000,0
1508374310.869,864.643,819.063,846.548,847.645,0.000,0.000,0
1508374310.871,855.732,820.708,848.193,848.604,0.000,0.000,0
1508374310.873,851.209,821.873,851.072,855.390,0.000,0.000,0
1508374310.875,855.047,822.216,852.168,860.188,0.000,0.000,0
1508374310.877,855.458,819.749,850.660,851.620,0.000,0.000,0
1508374310.879,854.910,820.023,849.632,848.399,0.000,0.000,0
1508374310.881,854.499,820.503,848.878,848.673,0.000,0.000,0
1508374310.883,859.776,819.817,846.342,847.987,0.000,0.000,0
1508374310.885,862.038,818.241,846.137,848.673,0.000,0.000,0
1508374310.887,859.160,814.471,846.754,848.947,0.000,0.000,0
1508374310.889,853.676,814.951,845.931,845.246,0.000,0.000,0
1508374310.891,856.281,816.596,846.274,852.580,0.000,0.000,0
1508374310.893,854.225,820.640,849.290,850.181,0.000,0.000,0
1508374310.895,845.246,825.575,850.798,843.052,0.000,0.000,0
1508374310.897,842.161,826.328,851.072,842.573,0.000,0.000,0
1508374310.899,843.875,829.002,849.153,842.436,0.000,0.000,0
1508374310.901,848.604,828.522,849.221,843.806,0.000,0.000,0
1508374310.903,855.184,823.792,850.660,845.931,0.000,0.000,0
1508374310.905,859.297,821.599,850.318,846.000,0.000,0.000,0
1508374310.907,867.179,820.571,848.330,855.870,0.000,0.000,0
1508374310.909,862.449,821.942,849.427,856.418,0.000,0.000,0
1508374310.911,856.007,819.200,849.701,861.490,0.000,0.000,0
1508374310.913,846.274,819.886,853.334,856.829,0.000,0.000,0
1508374310.915,849.153,823.039,854.499,861.490,0.000,0.000,0
1508374310.917,850.455,821.736,853.471,853.402,0.000,0.000,0
1508374310.919,853.950,822.970,851.963,853.265,0.000,0.000,0
1508374310.921,857.789,823.381,851.003,854.499,0.000,0.000,0
1508374310.923,863.341,822.422,850.181,860.599,0.000,0.000,0
1508374310.925,861.421,820.365,848.536,855.801,0.000,0.000,0
1508374310.927,860.051,820.708,847.165,850.798,0.000,0.000,0
1508374310.929,852.168,823.176,846.548,844.697,0.000,0.000,0
1508374310.931,855.116,826.123,849.290,853.608,0.000,0.000,0
1508374310.933,855.390,824.272,850.044,853.608,0.000,0.000,0
1508374310.935,855.801,820.914,851.209,856.829,0.000,0.000,0
1508374310.937,854.430,821.051,850.386,856.761,0.000,0.000,0
1508374310.939,851.346,819.063,850.318,857.103,0.000,0.000,0
1508374310.941,853.471,817.898,852.031,857.789,0.000,0.000,0
1508374310.943,850.729,820.845,850.660,861.284,0.000,0.000,0
1508374310.945,854.293,821.051,852.168,857.446,0.000,0.000,0
1508374310.947,854.019,815.979,850.249,845.451,0.000,0.000,0
1508374310.949,856.349,816.733,850.866,845.451,0.000,0.000,0
1508374310.951,852.717,817.144,852.168,844.012,0.000,0.000,0
1508374310.953,844.149,819.886,852.922,852.031,0.000,0.000,0
1508374310.955,845.863,823.724,851.757,858.063,0.000,0.000,0
1508374310.957,849.221,827.219,850.044,861.833,0.000,0.000,0
1508374310.959,846.274,826.603,850.181,858.406,0.000,0.000,0
1508374310.961,847.302,823.107,851.140,853.128,0.000,0.000,0
1508374310.963,848.673,822.285,851.894,844.012,0.000,0.000,0
1508374310.965,858.406,820.503,848.947,848.741,0.000,0.000,0
1508374310.967,861.284,822.422,846.274,844.492,0.000,0.000,0
1508374310.969,860.873,821.119,846.685,844.697,0.000,0.000,0
1508374310.971,852.648,818.035,847.233,848.878,0.000,0.000,0
1508374310.973,849.358,817.692,848.673,849.838,0.000,0.000,0
1508374310.975,849.495,817.898,849.564,853.539,0.000,0.000,0
1508374310.977,843.395,820.297,851.209,851.620,0.000,0.000,0
1508374310.979,844.423,823.107,852.374,848.604,0.000,0.000,0
1508374310.981,847.782,825.369,852.922,851.346,0.000,0.000,0
1508374310.983,848.330,825.917,850.592,852.031,0.000,0.000,0
1508374310.985,844.972,823.518,849.153,845.726,0.000,0.000,0
1508374310.987,847.850,820.023,847.782,842.298,0.000,0.000,0
1508374310.989,855.116,821.119,846.068,850.455,0.000,0.000,0
1508374310.991,849.838,819.200,847.576,853.128,0.000,0.000,0
1508374310.993,837.295,815.910,847.370,847.028,0.000,0.000,0
1508374310.995,828.659,819.680,849.016,834.211,0.000,0.000,0
1508374310.997,835.993,821.188,849.564,843.532,0.000,0.000,0
1508374310.999,843.943,822.216,849.975,850.660,0.000,0.000,0
1508374311.001,852.168,823.450,852.854,857.515,0.000,0.000,0
1508374311.003,857.720,824.204,854.567,854.293,0.000,0.000,0
1508374311.005,856.007,822.833,853.334,848.741,0.000,0.000,0
1508374311.007,849.769,817.281,851.209,849.906,0.000,0.000,0
1508374311.009,855.870,815.636,849.632,867.521,0.000,0.000,0
1508374311.011,856.007,815.019,850.729,868.550,0.000,0.000,0
1508374311.013,849.769,816.733,853.882,857.103,0.000,0.000,0
1508374311.015,846.685,818.720,854.773,851.826,0.000,0.000,0
1508374311.017,847.439,820.503,854.499,852.854,0.000,0.000,0
1508374311.019,851.894,822.559,853.745,853.676,0.000,0.000,0
1508374311.021,861.353,825.849,852.443,863.546,0.000,0.000,0
1508374311.023,861.901,827.082,852.580,860.119,0.000,0.000,0
1508374311.025,853.539,824.615,848.536,849.564,0.000,0.000,0
1508374311.027,847.576,821.599,848.673,844.423,0.000,0.000,0
1508374311.029,855.184,822.216,849.084,848.399,0.000,0.000,0
1508374311.031,860.325,820.708,847.713,852.785,0.000,0.000,0
1508374311.033,861.970,818.789,849.358,856.761,0.000,0.000,0
1508374311.035,853.539,818.583,849.427,857.172,0.000,0.000,0
1508374311.037,845.520,820.708,851.140,860.599,0.000,0.000,0
1508374311.039,841.407,823.930,851.140,855.390,0.000,0.000,0
1508374311.041,843.806,822.216,850.044,850.866,0.000,0.000,0
1508374311.043,850.386,817.624,848.124,855.870,0.000,0.000,0
1508374311.045,850.318,811.249,847.645,853.950,0.000,0.000,0
1508374311.047,850.935,814.334,846.000,849.221,0.000,0.000,0
1508374311.049,847.233,816.596,845.726,842.573,0.000,0.000,0
1508374311.051,841.956,816.253,846.342,842.161,0.000,0.000,0
1508374311.053,840.654,818.104,846.959,844.560,0.000,0.000,0
1508374311.055,843.395,818.926,847.165,851.689,0.000,0.000,0
1508374311.057,842.915,819.474,848.467,851.620,0.000,0.000,0
1508374311.059,838.803,818.652,845.451,840.722,0.000,0.000,0
1508374311.061,837.501,820.640,846.205,834.690,0.000,0.000,0
1508374311.063,844.834,819.474,847.919,845.314,0.000,0.000,0
1508374311.065,851.072,819.337,846.754,849.358,0.000,0.000,0
1508374311.067,851.894,820.434,845.451,844.081,0.000,0.000,0
1508374311.069,851.826,819.611,845.863,840.996,0.000,0.000,0
1508374311.071,851.894,820.914,846.891,847.028,0.000,0.000,0
1508374311.073,851.072,821.119,846.411,844.560,0.000,0.000,0
1508374311.075,851.963,821.805,845.657,850.181,0.000,0.000,0
1508374311.077,847.233,821.736,845.726,845.863,0.000,0.000,0
1508374311.079,840.242,821.119,846.479,839.283,0.000,0.000,0
1508374311.081,834.416,820.982,845.383,837.501,0.000,0.000,0
1508374311.083,841.133,820.228,847.782,841.476,0.000,0.000,0
1508374311.085,849.495,822.970,846.822,842.298,0.000,0.000,0
1508374311.087,855.458,825.437,844.629,844.766,0.000,0.000,0
1508374311.089,861.421,822.559,843.738,858.817,0.000,0.000,0
1508374311.091,856.898,821.531,846.137,855.870,0.000,0.000,0
1508374311.093,845.040,820.640,846.822,845.726,0.000,0.000,0
1508374311.095,841.339,821.531,847.370,839.077,0.000,0.000,0
1508374311.097,849.906,824.546,847.987,849.084,0.000,0.000,0
1508374311.099,852.854,824.272,847.576,855.047,0.000,0.000,0
1508374311.101,849.975,823.107,846.548,851.346,0.000,0.000,0
1508374311.103,847.782,823.518,846.000,846.274,0.000,0.000,0
1508374311.105,846.411,817.761,845.109,839.625,0.000,0.000,0
1508374311.107,852.031,814.334,844.218,843.464,0.000,0.000,0
1508374311.109,856.624,816.938,844.081,856.349,0.000,0.000,0
1508374311.111,853.471,820.640,844.972,851.483,0.000,0.000,0
1508374311.113,842.161,820.777,846.205,843.875,0.000,0.000,0
1508374311.115,840.791,819.406,848.124,843.052,0.000,0.000,0
1508374311.117,845.520,821.256,849.427,844.560,0.000,0.000,0
1508374311.119,848.604,823.313,848.467,845.588,0.000,0.000,0
1508374311.121,850.798,823.313,848.262,856.075,0.000,0.000,0
1508374311.123,843.738,822.490,848.947,853.745,0.000,0.000,0
1508374311.125,839.351,820.571,847.919,848.741,0.000,0.000,0
1508374311.127,841.133,820.571,847.439,843.052,0.000,0.000,0
1508374311.129,854.773,821.599,847.302,850.592,0.000,0.000,0
1508374311.131,861.079,822.079,848.604,859.022,0.000,0.000,0
1508374311.133,853.402,821.873,849.153,856.486,0.000,0.000,0
1508374311.135,843.327,819.543,851.277,850.112,0.000,0.000,0
1508374311.137,838.186,818.926,851.072,848.467,0.000,0.000,0
1508374311.139,841.065,821.256,849.016,850.318,0.000,0.000,0
1508374311.141,852.100,823.724,849.084,854.156,0.000,0.000,0
1508374311.143,860.805,821.942,847.233,859.982,0.000,0.000,0
1508374311.145,861.696,821.119,847.439,855.458,0.000,0.000,0
1508374311.147,860.530,820.571,846.959,849.975,0.000,0.000,0
1508374311.149,849.153,821.051,844.766,838.734,0.000,0.000,0
1508374311.151,846.068,820.503,847.370,839.077,0.000,0.000,0
1508374311.153,851.620,817.898,851.003,857.720,0.000,0.000,0
1508374311.155,848.604,810.427,849.358,856.349,0.000,0.000,0
1508374311.157,840.448,813.032,848.673,843.052,0.000,0.000,0
1508374311.159,842.984,819.200,849.495,848.878,0.000,0.000,0
1508374311.161,845.863,822.833,847.645,846.891,0.000,0.000,0
1508374311.163,848.056,822.422,846.959,842.504,0.000,0.000,0
1508374311.165,850.181,824.135,848.193,843.464,0.000,0.000,0
1508374311.167,852.648,824.341,848.810,843.190,0.000,0.000,0
1508374311.169,849.427,824.958,848.604,842.230,0.000,0.000,0
1508374311.171,851.689,824.067,847.370,843.190,0.000,0.000,0
1508374311.173,851.552,823.655,849.221,842.984,0.000,0.000,0
1508374311.175,851.826,824.341,851.277,853.882,0.000,0.000,0
1508374311.177,844.766,825.095,852.717,853.676,0.000,0.000,0
1508374311.179,844.355,823.107,849.427,849.975,0.000,0.000,0
1508374311.181,847.782,824.067,849.427,849.427,0.000,0.000,0
1508374311.183,851.003,824.546,851.620,851.483,0.000,0.000,0
1508374311.185,853.128,822.285,850.798,847.508,0.000,0.000,0
1508374311.187,854.910,821.668,849.084,844.560,0.000,0.000,0
1508374311.189,856.761,821.051,847.370,851.483,0.000,0.000,0
1508374311.191,853.539,820.571,850.318,855.458,0.000,0.000,0
1508374311.193,842.298,819.200,850.866,850.660,0.000,0.000,0
1508374311.195,838.940,822.353,852.305,843.738,0.000,0.000,0
1508374311.197,845.314,822.422,850.798,849.906,0.000,0.000,0
1508374311.199,841.065,822.353,847.576,848.056,0.000,0.000,0
1508374311.201,839.420,819.200,848.262,843.395,0.000,0.000,0
1508374311.203,842.161,816.253,846.274,841.887,0.000,0.000,0
1508374311.205,851.757,813.923,844.081,843.395,0.000,0.000,0
1508374311.207,854.979,812.689,844.286,838.460,0.000,0.000,0
1508374311.209,859.502,814.951,847.233,845.931,0.000,0.000,0
1508374311.211,851.757,815.979,847.370,846.068,0.000,0.000,0
1508374311.213,845.451,817.418,848.810,848.536,0.000,0.000,0
1508374311.215,844.286,820.777,850.455,847.439,0.000,0.000,0
1508374311.217,838.117,821.805,849.153,842.093,0.000,0.000,0
1508374311.219,836.404,822.696,849.153,836.884,0.000,0.000,0
1508374311.221,838.323,825.095,849.221,837.158,0.000,0.000,0
1508374311.223,846.205,823.724,847.302,847.782,0.000,0.000,0
1508374311.225,850.592,821.942,847.302,842.915,0.000,0.000,0
1508374311.227,847.302,821.119,846.000,834.348,0.000,0.000,0
1508374311.229,845.109,821.256,847.508,837.295,0.000,0.000,0
1508374311.231,848.810,820.023,847.987,842.504,0.000,0.000,0
1508374311.233,844.903,821.256,846.822,842.161,0.000,0.000,0
1508374311.235,841.133,821.256,847.919,843.601,0.000,0.000,0
1508374311.237,843.464,821.051,849.701,846.479,0.000,0.000,0
1508374311.239,852.374,820.708,849.495,847.782,0.000,0.000,0
1508374311.241,851.963,818.241,846.959,848.399,0.000,0.000,0
1508374311.243,852.717,816.733,848.193,851.826,0.000,0.000,0
1508374311.245,845.863,815.499,849.769,839.557,0.000,0.000,0
1508374311.247,855.664,815.773,850.181,846.479,0.000,0.000,0
1508374311.249,861.764,818.378,848.741,850.523,0.000,0.000,0
1508374311.251,855.664,820.091,849.290,852.100,0.000,0.000,0
1508374311.253,847.302,819.886,849.632,848.947,0.000,0.000,0
1508374311.255,846.342,821.119,848.810,849.153,0.000,0.000,0
1508374311.257,851.757,822.422,851.072,856.418,0.000,0.000,0
1508374311.259,861.147,823.039,850.592,868.138,0.000,0.000,0
1508374311.261,853.950,817.829,845.657,855.116,0.000,0.000,0
1508374311.263,840.311,810.633,844.355,840.105,0.000,0.000,0
1508374311.265,843.052,813.032,846.137,843.669,0.000,0.000,0
1508374311.267,855.664,818.652,847.370,853.676,0.000,0.000,0
1508374311.269,861.010,823.655,847.096,858.268,0.000,0.000,0
1508374311.271,860.805,826.054,848.604,862.038,0.000,0.000,0
1508374311.273,851.072,825.917,850.523,855.458,0.000,0.000,0
1508374311.275,839.214,824.135,849.838,845.520,0.000,0.000,0
1508374311.277,839.762,825.575,850.455,838.392,0.000,0.000,0
1508374311.279,851.894,826.740,851.140,843.395,0.000,0.000,0
1508374311.281,857.583,827.288,851.552,847.028,0.000,0.000,0
1508374311.283,855.116,824.546,850.386,847.096,0.000,0.000,0
1508374311.285,854.636,820.914,850.935,849.221,0.000,0.000,0
1508374311.287,856.144,818.378,850.729,844.081,0.000,0.000,0
1508374311.289,851.963,818.172,851.277,844.218,0.000,0.000,0
1508374311.291,846.411,822.147,851.414,848.124,0.000,0.000,0
1508374311.293,847.987,822.970,850.866,859.228,0.000,0.000,0
1508374311.295,847.302,821.462,851.414,857.035,0.000,0.000,0
1508374311.297,849.975,824.067,851.620,854.773,0.000,0.000,0
1508374311.299,850.044,823.861,850.592,850.044,0.000,0.000,0
1508374311.301,855.390,822.422,849.153,847.850,0.000,0.000,0
1508374311.303,854.567,823.381,848.536,843.327,0.000,0.000,0
1508374311.305,848.741,823.998,849.084,842.024,0.000,0.000,0
1508374311.307,852.648,822.970,848.193,851.414,0.000,0.000,1
1508374311.309,853.676,823.518,848.741,849.632,0.000,0.000,0
1508374311.311,856.349,822.901,846.342,851.277,0.000,0.000,0
1508374311.313,849.221,823.313,847.302,850.044,0.000,0.000,0
1508374311.315,844.355,819.611,845.040,843.806,0.000,0.000,0
1508374311.317,843.943,820.297,847.782,845.246,0.000,0.000,0
1508374311.319,842.641,820.777,849.153,839.146,0.000,0.000,0
1508374311.321,848.467,820.503,848.330,845.520,0.000,0.000,0
1508374311.323,851.689,821.531,847.370,840.996,0.000,0.000,0
1508374311.325,856.692,823.930,846.479,845.794,0.000,0.000,0
1508374311.327,859.913,820.777,843.532,852.785,0.000,0.000,0
1508374311.329,861.696,820.571,845.726,856.829,0.000,0.000,0
1508374311.331,857.446,819.337,844.972,852.511,0.000,0.000,0
1508374311.333,850.386,820.777,846.959,846.000,0.000,0.000,0
1508374311.335,850.660,822.216,847.850,848.810,0.000,0.000,0
1508374311.337,851.826,822.764,849.153,847.919,0.000,0.000,0
1508374311.339,855.116,823.176,850.318,851.757,0.000,0.000,0
1508374311.341,853.950,823.381,848.947,850.866,0.000,0.000,0
1508374311.343,857.240,822.764,848.878,855.870,0.000,0.000,0
1508374311.345,850.660,825.712,848.193,844.972,0.000,0.000,0
1508374311.347,852.785,824.615,845.726,839.625,0.000,0.000,0
1508374311.349,854.499,820.297,844.560,832.634,0.000,0.000,0
1508374311.351,852.580,817.487,844.423,837.706,0.000,0.000,0
1508374311.353,842.093,816.801,846.274,843.738,0.000,0.000,0
1508374311.355,837.569,814.265,848.124,843.806,0.000,0.000,0
1508374311.357,846.342,815.773,847.919,847.645,0.000,0.000,0
1508374311.359,842.915,818.241,845.794,846.137,0.000,0.000,0
1508374311.361,847.645,819.543,845.794,846.959,0.000,0.000,0
1508374311.363,850.386,819.406,847.096,841.270,0.000,0.000,0
1508374311.365,851.826,814.677,846.479,842.367,0.000,0.000,0
1508374311.367,851.483,812.963,846.342,844.012,0.000,0.000,0
1508374311.369,848.330,814.197,844.286,844.834,0.000,0.000,0
1508374311.371,844.834,813.580,841.682,843.806,0.000,0.000,0
1508374311.373,843.943,811.455,842.984,847.987,0.000,0.000,0
1508374311.375,841.613,815.430,844.629,846.959,0.000,0.000,0
1508374311.377,845.383,818.720,844.834,845.109,0.000,0.000,0
1508374311.379,845.109,824.272,844.012,835.444,0.000,0.000,0
1508374311.381,850.181,823.244,845.314,840.311,0.000,0.000,0
1508374311.383,853.334,820.982,845.109,842.093,0.000,0.000,0
1508374311.385,850.523,820.434,844.149,843.669,0.000,0.000,0
1508374311.387,846.891,821.599,842.298,839.283,0.000,0.000,0
1508374311.389,851.277,817.555,842.504,840.996,0.000,0.000,0
1508374311.391,854.019,815.019,840.859,844.492,0.000,0.000,0
1508374311.393,851.757,818.515,844.149,845.451,0.000,0.000,0
1508374311.395,843.258,820.982,846.548,836.884,0.000,0.000,0
1508374311.397,848.124,824.821,848.810,846.411,0.000,0.000,0
1508374311.399,837.158,823.381,846.205,843.875,0.000,0.000,0
1508374311.401,836.610,822.353,843.190,835.993,0.000,0.000,0
1508374311.403,842.710,821.531,844.149,840.654,0.000,0.000,0
1508374311.405,850.523,820.914,846.479,845.794,0.000,0.000,0
1508374311.407,852.717,818.309,846.205,849.427,0.000,0.000,0
1508374311.409,853.471,817.350,845.040,844.972,0.000,0.000,0
1508374311.411,843.464,817.966,843.875,832.771,0.000,0.000,0
1508374311.413,846.548,820.845,845.794,841.133,0.000,0.000,0
1508374311.415,847.165,821.668,845.588,849.769,0.000,0.000,0
1508374311.417,844.149,821.805,846.411,852.168,0.000,0.000,0
1508374311.419,848.124,823.724,849.221,852.648,0.000,0.000,0
1508374311.421,850.181,824.958,849.564,849.769,0.000,0.000,0
1508374311.423,862.998,825.369,849.906,857.377,0.000,0.000,0
1508374311.425,865.671,823.587,847.370,858.817,0.000,0.000,0
1508374311.427,861.764,822.216,847.233,859.091,0.000,0.000,0
1508374311.429,858.268,823.381,847.576,852.991,0.000,0.000,0
1508374311.431,859.228,824.958,848.193,855.527,0.000,0.000,0
1508374311.433,849.427,823.724,850.318,859.228,0.000,0.000,0
1508374311.435,852.100,826.123,850.592,862.175,0.000,0.000,0
1508374311.437,854.636,826.260,848.124,858.611,0.000,0.000,0
1508374311.439,853.265,823.724,849.632,855.664,0.000,0.000,0
1508374311.441,844.286,818.995,849.084,856.281,0.000,0.000,0
1508374311.443,843.601,821.051,850.386,851.689,0.000,0.000,0
1508374311.445,845.314,823.039,849.084,844.697,0.000,0.000,0
1508374311.447,852.168,823.518,847.919,848.467,0.000,0.000,0
1508374311.449,855.664,821.188,847.302,846.822,0.000,0.000,0
1508374311.451,859.297,821.119,847.987,847.713,0.000,0.000,0
1508374311.453,853.471,823.244,848.262,850.866,0.000,0.000,0
1508374311.455,853.471,827.151,849.838,862.449,0.000,0.000,0
1508374311.457,847.028,826.054,850.044,858.611,0.000,0.000,0
1508374311.459,843.875,823.039,848.124,847.370,0.000,0.000,0
1508374311.461,850.660,822.627,851.346,843.121,0.000,0.000,0
1508374311.463,859.639,823.792,852.785,847.987,0.000,0.000,0
1508374311.465,858.885,819.886,847.439,840.037,0.000,0.000,0
1508374311.467,854.636,815.636,843.669,834.074,0.000,0.000,0
1508374311.469,851.483,815.636,843.532,838.803,0.000,0.000,0
1508374311.471,852.237,818.995,847.096,847.302,0.000,0.000,0
1508374311.473,853.676,822.559,849.153,851.277,0.000,0.000,0
1508374311.475,851.072,824.135,849.632,853.334,0.000,0.000,0
1508374311.477,852.717,824.135,848.673,854.225,0.000,0.000,0
1508374311.479,856.692,825.369,849.153,852.922,0.000,0.000,0
1508374311.481,849.427,824.958,850.592,847.576,0.000,0.000,0
1508374311.483,847.096,825.095,851.552,848.056,0.000,0.000,0
1508374311.485,848.399,823.107,850.044,845.520,0.000,0.000,0
1508374311.487,849.016,820.982,848.399,842.641,0.000,0.000,0
1508374311.489,853.402,823.792,846.411,852.168,0.000,0.000,0
1508374311.491,858.885,827.973,846.411,852.991,0.000,0.000,0
1508374311.493,852.100,826.054,848.262,847.370,0.000,0.000,0
1508374311.495,843.875,817.555,850.798,845.863,0.000,0.000,0
1508374311.497,846.342,816.459,851.483,853.265,0.000,0.000,0
1508374311.499,844.834,819.337,849.906,847.782,0.000,0.000,0
1508374311.501,845.040,822.490,847.782,846.959,0.000,0.000,0
1508374311.503,848.741,824.889,847.302,845.931,0.000,0.000,0
1508374311.505,854.499,824.958,848.193,845.177,0.000,0.000,0
1508374311.507,859.639,820.708,847.370,852.305,0.000,0.000,0
1508374311.509,854.088,820.845,847.508,849.221,0.000,0.000,0
1508374311.511,853.745,822.079,847.713,850.935,0.000,0.000,0
1508374311.513,863.478,825.506,849.221,861.901,0.000,0.000,0
1508374311.515,860.530,826.397,849.221,859.365,0.000,0.000,0
1508374311.517,857.035,826.534,848.604,859.022,0.000,0.000,0
1508374311.519,849.084,823.998,849.564,856.144,0.000,0.000,0
1508374311.521,853.196,822.422,850.318,853.196,0.000,0.000,0
1508374311.523,856.075,820.228,849.016,853.813,0.000,0.000,0
1508374311.525,861.216,822.559,850.318,858.200,0.000,0.000,0
1508374311.527,864.985,822.764,850.112,862.861,0.000,0.000,0
1508374311.529,857.926,822.559,849.564,856.212,0.000,0.000,0
1508374311.531,854.088,823.724,848.741,855.870,0.000,0.000,0
1508374311.533,850.386,827.631,850.181,851.346,0.000,0.000,0
1508374311.535,847.370,826.603,850.455,853.059,0.000,0.000,0
1508374311.537,847.508,827.219,852.443,860.599,0.000,0.000,0
1508374311.539,851.963,828.864,855.047,859.708,0.000,0.000,0
1508374311.541,858.200,825.712,855.664,869.304,0.000,0.000,0
1508374311.543,860.188,821.531,855.047,866.356,0.000,0.000,0
1508374311.545,864.163,821.736,851.346,860.325,0.000,0.000,0
1508374311.547,865.602,819.406,849.084,858.268,0.000,0.000,0
1508374311.549,864.643,816.321,848.193,858.200,0.000,0.000,0
1508374311.551,864.163,818.309,850.592,856.007,0.000,0.000,0
1508374311.553,858.131,822.627,852.237,853.334,0.000,0.000,0
1508374311.555,855.595,824.683,850.386,860.736,0.000,0.000,0
1508374311.557,852.443,827.357,848.604,852.854,0.000,0.000,0
1508374311.559,850.866,826.534,848.262,841.887,0.000,0.000,0
1508374311.561,849.495,826.534,849.906,838.049,0.000,0.000,0
1508374311.563,862.107,824.958,850.935,847.987,0.000,0.000,0
1508374311.565,860.051,822.353,847.645,845.657,0.000,0.000,0
1508374311.567,851.140,820.845,845.726,846.000,0.000,0.000,0
1508374311.569,847.096,820.228,845.794,846.685,0.000,0.000,0
1508374311.571,848.604,821.668,846.685,848.193,0.000,0.000,0
1508374311.573,847.508,824.067,847.919,846.205,0.000,0.000,0
1508374311.575,847.919,823.655,848.741,852.854,0.000,0.000,0
1508374311.577,842.778,819.817,848.947,853.402,0.000,0.000,0
1508374311.579,835.993,815.910,847.028,849.153,0.000,0.000,0
1508374311.581,840.516,817.213,848.878,849.906,0.000,0.000,0
1508374311.583,847.233,820.228,848.810,847.165,0.000,0.000,0
1508374311.585,851.894,823.176,849.084,847.439,0.000,0.000,0
1508374311.587,850.798,823.039,850.386,844.697,0.000,0.000,0
1508374311.589,849.221,822.216,850.318,851.963,0.000,0.000,0
1508374311.591,850.455,822.079,851.277,850.935,0.000,0.000,0
1508374311.593,844.012,821.668,850.798,844.903,0.000,0.000,0
1508374311.595,838.323,822.833,851.552,839.351,0.000,0.000,0
1508374311.597,845.863,824.615,852.031,850.044,0.000,0.000,0
1508374311.599,846.959,825.575,851.689,850.455,0.000,0.000,0
1508374311.601,849.358,824.135,850.866,849.564,0.000,0.000,0
1508374311.603,852.785,822.764,852.922,846.205,0.000,0.000,0
1508374311.605,855.321,819.886,852.648,843.327,0.000,0.000,0
1508374311.607,865.877,816.116,848.878,848.810,0.000,0.000,0
1508374311.609,863.683,816.870,847.165,849.427,0.000,0.000,0
1508374311.611,850.935,818.652,847.919,843.121,0.000,0.000,0
1508374311.613,849.358,821.462,851.414,849.564,0.000,0.000,0
1508374311.615,854.567,822.559,853.402,857.926,0.000,0.000,0
1508374311.617,854.499,823.724,852.237,855.458,0.000,0.000,0
1508374311.619,850.112,825.849,850.523,847.645,0.000,0.000,0
1508374311.621,858.543,826.054,853.128,850.318,0.000,0.000,0
1508374311.623,867.933,819.680,854.704,866.836,0.000,0.000,0
1508374311.625,875.952,815.842,852.443,865.054,0.000,0.000,0
1508374311.627,874.787,817.966,848.673,854.156,0.000,0.000,0
1508374311.629,871.771,823.450,848.810,856.692,0.000,0.000,0
1508374311.631,863.889,825.780,849.016,857.583,0.000,0.000,0
1508374311.633,849.358,824.478,851.826,853.334,0.000,0.000,0
1508374311.635,837.912,821.599,852.991,850.181,0.000,0.000,0
1508374311.637,834.622,823.107,852.443,854.567,0.000,0.000,0
1508374311.639,838.529,823.039,850.455,853.882,0.000,0.000,0
1508374311.641,840.037,822.285,847.645,847.713,0.000,0.000,0
1508374311.643,842.436,819.817,848.262,847.165,0.000,0.000,0
1508374311.645,838.186,817.418,850.249,838.117,0.000,0.000,0
1508374311.647,844.149,819.200,847.576,840.859,0.000,0.000,0
1508374311.649,843.395,819.817,844.423,842.367,0.000,0.000,0
1508374311.651,842.504,820.982,842.710,837.638,0.000,0.000,0
1508374311.653,841.613,822.559,844.081,839.077,0.000,0.000,0
1508374311.655,841.682,822.970,847.028,842.093,0.000,0.000,0
1508374311.657,849.016,823.450,849.701,849.906,0.000,0.000,0
1508374311.659,846.342,823.587,848.604,844.629,0.000,0.000,0
1508374311.661,848.467,822.422,846.959,843.395,0.000,0.000,0
1508374311.663,853.539,822.010,847.028,840.174,0.000,0.000,0
1508374311.665,858.337,821.462,846.342,843.327,0.000,0.000,0
1508374311.667,857.172,821.188,847.782,846.617,0.000,0.000,0
1508374311.669,858.063,822.285,847.919,849.906,0.000,0.000,0
1508374311.671,854.841,821.119,847.919,852.100,0.000,0.000,0
1508374311.673,850.729,821.873,848.536,858.131,0.000,0.000,0
1508374311.675,848.741,823.039,850.249,852.648,0.000,0.000,0
1508374311.677,841.613,820.434,852.305,844.355,0.000,0.000,0
1508374311.679,846.891,822.285,852.854,850.044,0.000,0.000,0
1508374311.681,851.894,823.107,850.798,852.031,0.000,0.000,0
1508374311.683,850.866,821.188,848.330,852.580,0.000,0.000,0
1508374311.685,850.935,820.365,846.205,851.894,0.000,0.000,0
1508374311.687,850.455,819.611,845.246,845.314,0.000,0.000,0
1508374311.689,855.595,822.833,846.891,849.221,0.000,0.000,0
1508374311.691,849.495,823.724,844.423,847.576,0.000,0.000,0
1508374311.693,846.342,826.260,845.588,837.775,0.000,0.000,0
1508374311.695,845.040,827.425,846.411,831.812,0.000,0.000,0
1508374311.697,849.221,826.054,848.124,839.900,0.000,0.000,0
1508374311.699,848.193,826.397,846.891,840.996,0.000,0.000,0
1508374311.701,852.785,826.397,847.028,842.024,0.000,0.000,0
1508374311.703,853.676,824.409,847.096,843.943,0.000,0.000,0
1508374311.705,850.729,824.752,845.726,841.819,0.000,0.000,0
1508374311.707,856.075,824.615,844.355,845.383,0.000,0.000,0
1508374311.709,853.334,820.160,842.984,842.024,0.000,0.000,0
1508374311.711,848.878,818.378,844.149,844.834,0.000,0.000,0
1508374311.713,842.573,821.393,845.726,844.903,0.000,0.000,0
1508374311.715,841.819,822.147,847.165,840.928,0.000,0.000,0
1508374311.717,845.657,820.777,847.233,835.513,0.000,0.000,0
1508374311.719,848.741,822.833,848.056,835.719,0.000,0.000,0
1508374311.721,845.383,823.792,849.290,839.283,0.000,0.000,0
1508374311.723,842.915,820.708,848.467,851.483,0.000,0.000,0
1508374311.725,845.726,819.269,847.302,846.342,0.000,0.000,0
1508374311.727,852.031,818.583,845.794,837.569,0.000,0.000,0
1508374311.729,853.196,819.817,846.685,839.831,0.000,0.000,0
1508374311.731,850.386,817.761,847.645,843.121,0.000,0.000,0
1508374311.733,841.819,817.555,848.810,846.000,0.000,0.000,0
1508374311.735,841.613,817.350,848.124,847.439,0.000,0.000,0
1508374311.737,845.383,818.378,845.931,840.379,0.000,0.000,0
1508374311.739,848.947,817.418,847.576,849.290,0.000,0.000,0
1508374311.741,844.492,816.938,845.931,850.044,0.000,0.000,0
1508374311.743,846.822,819.749,847.028,843.258,0.000,0.000,0
1508374311.745,845.451,822.490,847.439,832.154,0.000,0.000,0
1508374311.747,849.906,823.381,845.863,837.638,0.000,0.000,0
1508374311.749,850.249,823.313,845.109,840.311,0.000,0.000,0
1508374311.751,844.629,824.067,845.931,839.625,0.000,0.000,0
1508374311.753,841.339,824.752,847.302,837.706,0.000,0.000,0
1508374311.755,843.669,825.437,850.181,850.044,0.000,0.000,0
1508374311.757,838.597,821.188,851.346,842.915,0.000,0.000,0
1508374311.759,835.581,817.624,848.467,834.142,0.000,0.000,0
1508374311.761,837.843,818.515,848.193,827.836,0.000,0.000,0
1508374311.763,850.660,820.365,850.455,835.993,0.000,0.000,0
1508374311.765,850.660,818.241,849.290,839.488,0.000,0.000,0
1508374311.767,852.511,818.926,848.604,840.654,0.000,0.000,0
1508374311.769,854.567,820.845,848.741,842.915,0.000,0.000,0
1508374311.771,851.209,822.422,847.165,845.794,0.000,0.000,0
1508374311.773,847.508,822.285,849.495,847.645,0.000,0.000,0
1508374311.775,847.165,821.119,851.140,851.689,0.000,0.000,0
1508374311.777,840.037,820.777,849.838,846.617,0.000,0.000,0
1508374311.779,837.706,819.269,848.673,841.819,0.000,0.000,0
1508374311.781,838.734,815.910,848.536,836.404,0.000,0.000,0
1508374311.783,840.928,813.032,849.495,836.884,0.000,0.000,0
1508374311.785,842.984,815.293,848.878,836.747,0.000,0.000,0
1508374311.787,847.233,814.608,847.850,837.912,0.000,0.000,0
1508374311.789,853.539,813.854,846.822,848.399,0.000,0.000,0
1508374311.791,849.016,815.773,848.673,845.863,0.000,0.000,0
1508374311.793,842.298,820.845,850.523,842.847,0.000,0.000,0
1508374311.795,840.037,822.079,851.963,842.161,0.000,0.000,0
1508374311.797,844.081,824.409,851.483,837.432,0.000,0.000,0
1508374311.799,849.016,827.631,852.922,841.476,0.000,0.000,0
1508374311.801,848.878,825.575,854.156,840.585,0.000,0.000,0
1508374311.803,848.399,824.272,852.991,840.996,0.000,0.000,0
1508374311.805,851.072,822.353,852.922,844.492,0.000,0.000,0
1508374311.807,857.446,817.692,850.729,858.063,0.000,0.000,0
1508374311.809,856.212,817.213,851.072,858.200,0.000,0.000,0
1508374311.811,853.128,818.309,851.003,851.072,0.000,0.000,0
1508374311.813,850.112,819.337,852.580,844.903,0.000,0.000,0
1508374311.815,846.548,821.805,854.979,839.009,0.000,0.000,0
1508374311.817,840.311,821.188,856.075,838.666,0.000,0.000,0
1508374311.819,842.847,818.926,854.430,836.267,0.000,0.000,0
1508374311.821,846.068,819.680,853.128,835.993,0.000,0.000,0
1508374311.823,849.084,817.487,850.866,844.629,0.000,0.000,0
1508374311.825,852.717,818.378,849.084,842.778,0.000,0.000,0
1508374311.827,858.063,820.571,848.810,837.089,0.000,0.000,0
1508374311.829,861.079,822.353,850.318,840.105,0.000,0.000,0
1508374311.831,859.160,821.531,849.221,844.834,0.000,0.000,0
1508374311.833,853.059,821.119,849.495,839.694,0.000,0.000,0
1508374311.835,852.648,820.228,851.209,837.364,0.000,0.000,0
1508374311.837,851.003,815.636,851.963,839.625,0.000,0.000,0
1508374311.839,856.898,815.088,849.495,849.769,0.000,0.000,0
1508374311.841,857.857,815.019,848.056,843.601,0.000,0.000,0
1508374311.843,851.072,819.543,848.741,836.884,0.000,0.000,0
1508374311.845,850.386,823.587,849.427,837.226,0.000,0.000,0
1508374311.847,857.515,823.724,848.741,842.298,0.000,0.000,0
1508374311.849,851.483,822.627,847.370,842.847,0.000,0.000,0
1508374311.851,850.729,823.861,846.685,842.024,0.000,0.000,0
1508374311.853,848.467,823.930,845.177,841.819,0.000,0.000,0
1508374311.855,846.685,822.833,846.822,844.149,0.000,0.000,0
1508374311.857,851.346,821.119,845.863,853.265,0.000,0.000,0
1508374311.859,855.047,822.627,848.056,848.467,0.000,0.000,0
1508374311.861,848.536,819.886,847.645,840.242,0.000,0.000,0
1508374311.863,853.402,821.873,846.754,842.710,0.000,0.000,0
1508374311.865,856.349,820.023,845.588,843.190,0.000,0.000,0
1508374311.867,855.047,814.951,844.218,840.996,0.000,0.000,0
1508374311.869,855.116,816.459,845.931,842.436,0.000,0.000,0
1508374311.871,856.144,818.926,849.290,855.253,0.000,0.000,0
1508374311.873,849.427,820.640,851.209,853.608,0.000,0.000,0
1508374311.875,845.451,820.845,849.769,849.701,0.000,0.000,0
1508374311.877,839.625,820.845,849.153,835.102,0.000,0.000,0
1508374311.879,849.016,820.777,848.878,839.968,0.000,0.000,0
1508374311.881,851.003,819.954,847.576,842.298,0.000,0.000,0
1508374311.883,848.673,820.434,846.959,842.230,0.000,0.000,0
1508374311.885,852.031,818.309,844.972,839.557,0.000,0.000,0
1508374311.887,854.910,817.966,842.367,836.815,0.000,0.000,0
1508374311.889,858.611,817.350,843.121,837.501,0.000,0.000,0
1508374311.891,863.889,814.197,846.000,854.773,0.000,0.000,0
1508374311.893,858.611,809.056,844.286,852.580,0.000,0.000,0
1508374311.895,849.358,814.471,844.012,845.588,0.000,0.000,0
1508374311.897,842.847,818.309,844.081,841.133,0.000,0.000,0
1508374311.899,847.439,821.393,845.588,842.504,0.000,0.000,0
1508374311.901,856.624,824.889,846.411,843.943,0.000,0.000,0
1508374311.903,859.776,824.341,846.959,846.959,0.000,0.000,0
1508374311.905,862.107,823.724,846.411,850.660,0.000,0.000,0
1508374311.907,852.717,822.696,845.109,840.105,0.000,0.000,0
1508374311.909,847.782,823.450,842.847,833.251,0.000,0.000,0
1508374311.911,850.181,826.191,845.246,832.771,0.000,0.000,0
1508374311.913,851.826,823.381,845.794,839.625,0.000,0.000,0
1508374311.915,846.891,820.091,846.822,838.666,0.000,0.000,0
1508374311.917,842.436,820.640,846.205,839.831,0.000,0.000,0
1508374311.919,842.641,820.982,845.177,839.831,0.000,0.000,0
1508374311.921,843.806,818.995,846.137,842.024,0.000,0.000,0
1508374311.923,849.221,816.253,846.274,846.891,0.000,0.000,0
1508374311.925,850.660,815.019,844.560,842.641,0.000,0.000,0
1508374311.927,855.047,809.879,843.395,840.585,0.000,0.000,0
1508374311.929,849.564,807.548,843.052,837.501,0.000,0.000,0
1508374311.931,847.302,809.742,844.834,839.420,0.000,0.000,0
1508374311.933,840.928,813.580,845.726,840.311,0.000,0.000,0
1508374311.935,840.996,817.624,847.850,843.464,0.000,0.000,0
1508374311.937,848.056,820.777,848.604,848.536,0.000,0.000,0
1508374311.939,856.144,820.571,847.919,854.910,0.000,0.000,1
1508374311.941,852.374,820.091,848.330,851.483,0.000,0.000,0
1508374311.943,846.685,819.817,846.754,841.407,0.000,0.000,0
1508374311.945,851.552,822.010,846.068,839.968,0.000,0.000,0
1508374311.947,859.502,820.708,845.246,847.233,0.000,0.000,0
1508374311.949,859.091,817.898,846.000,845.794,0.000,0.000,0
1508374311.951,856.486,817.829,848.673,845.520,0.000,0.000,0
1508374311.953,848.330,821.668,850.112,848.810,0.000,0.000,0
1508374311.955,843.395,822.490,848.673,848.330,0.000,0.000,0
1508374311.957,839.968,819.337,845.520,852.100,0.000,0.000,0
1508374311.959,839.831,819.063,847.165,851.689,0.000,0.000,0
1508374311.961,840.105,820.365,850.181,842.161,0.000,0.000,0
1508374311.963,847.713,820.228,851.483,844.355,0.000,0.000,0
1508374311.965,850.729,817.966,848.262,841.750,0.000,0.000,0
1508374311.967,851.483,817.213,848.467,843.258,0.000,0.000,0
1508374311.969,852.785,815.979,850.455,846.685,0.000,0.000,0
1508374311.971,852.785,815.293,850.592,858.063,0.000,0.000,0
1508374311.973,844.218,817.761,850.592,854.225,0.000,0.000,0
1508374311.975,841.545,820.023,849.769,848.604,0.000,0.000,0
1508374311.977,839.351,819.817,849.495,839.831,0.000,0.000,0
1508374311.979,847.713,819.474,851.620,852.580,0.000,0.000,0
1508374311.981,850.798,819.269,850.044,856.486,0.000,0.000,0
1508374311.983,852.511,814.745,848.947,852.717,0.000,0.000,0
1508374311.985,855.870,814.265,847.782,851.140,0.000,0.000,0
1508374311.987,857.240,811.455,846.685,847.576,0.000,0.000,0
1508374311.989,855.664,811.524,846.754,846.822,0.000,0.000,0
1508374311.991,856.555,814.402,846.342,855.938,0.000,0.000,0
1508374311.993,853.950,817.966,847.782,857.789,0.000,0.000,0
1508374311.995,853.608,819.543,846.274,857.172,0.000,0.000,0
1508374311.997,841.476,818.309,844.697,851.757,0.000,0.000,0
1508374311.999,839.968,821.531,846.754,850.112,0.000,0.000,0
1508374312.001,847.439,823.244,847.096,850.044,0.000,0.000,0
1508374312.003,851.346,821.942,846.479,845.177,0.000,0.000,0
1508374312.005,861.901,817.692,846.000,851.552,0.000,0.000,0
1508374312.007,856.418,815.088,845.931,845.314,0.000,0.000,0
1508374312.009,845.177,813.511,845.383,844.972,0.000,0.000,0
1508374312.011,838.117,813.991,846.959,843.258,0.000,0.000,0
1508374312.013,847.233,817.213,849.975,854.362,0.000,0.000,0
1508374312.015,846.617,821.051,848.124,854.636,0.000,0.000,0
1508374312.017,844.218,821.393,847.302,850.798,0.000,0.000,0
1508374312.019,844.012,819.954,847.439,849.701,0.000,0.000,0
1508374312.021,843.121,819.817,848.536,846.000,0.000,0.000,0
1508374312.023,847.508,819.063,848.399,859.845,0.000,0.000,0
1508374312.025,850.318,820.571,847.439,859.639,0.000,0.000,0
1508374312.027,859.571,819.269,848.604,860.736,0.000,0.000,0
1508374312.029,857.789,813.443,845.314,855.116,0.000,0.000,0
1508374312.031,847.028,810.907,842.230,846.685,0.000,0.000,0
1508374312.033,839.694,815.362,845.177,843.601,0.000,0.000,0
1508374312.035,845.383,819.680,845.314,849.290,0.000,0.000,0
1508374312.037,849.016,819.132,845.794,850.798,0.000,0.000,0
1508374312.039,854.704,819.954,847.165,859.228,0.000,0.000,0
1508374312.041,854.225,821.873,847.987,851.483,0.000,0.000,0
1508374312.043,849.153,822.285,847.645,840.859,0.000,0.000,0
1508374312.045,844.492,822.010,846.411,840.516,0.000,0.000,0
1508374312.047,844.560,819.749,843.532,843.258,0.000,0.000,0
1508374312.049,845.657,817.966,841.750,842.778,0.000,0.000,0
1508374312.051,845.246,819.749,840.379,845.246,0.000,0.000,0
1508374312.053,846.137,824.478,843.532,852.922,0.000,0.000,0
1508374312.055,848.056,823.450,847.919,857.583,0.000,0.000,0
1508374312.057,845.863,821.188,844.492,858.268,0.000,0.000,0
1508374312.059,841.065,818.378,843.806,848.262,0.000,0.000,0
1508374312.061,837.980,817.624,844.629,840.516,0.000,0.000,0
1508374312.063,847.713,818.583,844.423,847.096,0.000,0.000,0
1508374312.065,856.075,820.365,844.766,850.798,0.000,0.000,0
1508374312.067,854.156,817.350,843.806,851.346,0.000,0.000,0
1508374312.069,852.100,815.705,844.492,851.757,0.000,0.000,0
1508374312.071,852.168,815.979,844.697,856.624,0.000,0.000,0
1508374312.073,845.383,817.761,847.096,857.789,0.000,0.000,0
1508374312.075,842.710,815.430,846.274,859.571,0.000,0.000,0
1508374312.077,837.295,817.898,846.617,850.798,0.000,0.000,0
1508374312.079,839.488,819.749,847.439,858.406,0.000,0.000,0
1508374312.081,844.149,817.555,846.411,862.861,0.000,0.000,0
1508374312.083,848.673,817.281,844.972,857.240,0.000,0.000,0
1508374312.085,855.321,817.829,843.258,847.439,0.000,0.000,0
1508374312.087,862.244,816.390,842.093,843.395,0.000,0.000,0
1508374312.089,856.761,816.116,841.819,844.081,0.000,0.000,0
1508374312.091,845.177,815.430,841.476,845.451,0.000,0.000,0
1508374312.093,840.174,817.144,841.613,842.847,0.000,0.000,0
1508374312.095,835.993,819.337,842.710,834.828,0.000,0.000,0
1508374312.097,839.625,818.857,843.806,840.037,0.000,0.000,0
1508374312.099,843.532,815.979,845.931,845.520,0.000,0.000,0
1508374312.101,849.153,816.321,846.617,846.205,0.000,0.000,0
1508374312.103,856.898,811.866,845.588,848.947,0.000,0.000,0
1508374312.105,860.051,810.838,844.697,858.885,0.000,0.000,0
1508374312.107,853.402,810.770,844.972,849.358,0.000,0.000,0
1508374312.109,844.081,812.278,844.149,840.996,0.000,0.000,0
1508374312.111,838.255,814.745,843.258,834.142,0.000,0.000,0
1508374312.113,845.726,816.527,842.436,846.754,0.000,0.000,0
1508374312.115,847.302,816.801,845.177,850.798,0.000,0.000,0
1508374312.117,847.987,816.459,846.000,848.124,0.000,0.000,0
1508374312.119,847.028,818.857,847.919,846.411,0.000,0.000,0
1508374312.121,850.455,821.119,846.274,851.140,0.000,0.000,0
1508374312.123,859.776,821.942,844.355,857.652,0.000,0.000,0
1508374312.125,862.244,820.914,843.190,852.100,0.000,0.000,0
1508374312.127,864.163,818.241,842.847,847.645,0.000,0.000,0
1508374312.129,857.515,818.446,843.327,840.791,0.000,0.000,0
1508374312.131,851.963,819.954,844.012,839.625,0.000,0.000,0
1508374312.133,848.741,825.026,845.588,840.174,0.000,0.000,0
1508374312.135,846.342,827.768,844.766,842.298,0.000,0.000,0
1508374312.137,845.794,829.276,843.806,841.339,0.000,0.000,0
1508374312.139,850.112,824.821,843.258,842.641,0.000,0.000,0
1508374312.141,852.100,819.474,842.915,838.597,0.000,0.000,0
1508374312.143,843.395,817.075,841.476,834.828,0.000,0.000,0
1508374312.145,843.601,817.829,841.270,836.678,0.000,0.000,0
1508374312.147,855.938,817.213,841.270,843.738,0.000,0.000,0
1508374312.149,856.144,815.568,840.242,841.887,0.000,0.000,0
1508374312.151,855.184,816.390,841.476,841.270,0.000,0.000,0
1508374312.153,851.620,818.652,844.149,842.915,0.000,0.000,0
1508374312.155,850.455,819.269,846.205,847.439,0.000,0.000,0
1508374312.157,845.520,817.966,842.847,853.471,0.000,0.000,0
1508374312.159,842.778,815.499,842.504,850.455,0.000,0.000,0
1508374312.161,842.778,817.487,843.601,844.286,0.000,0.000,0
1508374312.163,852.237,820.091,845.520,843.532,0.000,0.000,0
1508374312.165,858.885,819.200,844.492,846.822,0.000,0.000,0
1508374312.167,861.010,816.184,843.669,846.342,0.000,0.000,0
1508374312.169,863.683,816.253,844.081,845.246,0.000,0.000,0
1508374312.171,860.805,816.664,843.532,843.327,0.000,0.000,0
1508374312.173,858.131,816.801,845.246,857.103,0.000,0.000,0
1508374312.175,854.088,818.104,846.137,858.337,0.000,0.000,0
1508374312.177,850.249,810.358,846.754,847.508,0.000,0.000,0
1508374312.179,852.854,811.112,846.274,844.629,0.000,0.000,0
1508374312.181,849.564,815.705,845.383,844.697,0.000,0.000,0
1508374312.183,845.177,820.434,845.383,846.274,0.000,0.000,0
1508374312.185,848.467,823.450,845.794,849.358,0.000,0.000,0
1508374312.187,859.776,823.313,846.891,860.188,0.000,0.000,0
1508374312.189,854.773,820.228,845.177,853.059,0.000,0.000,0
1508374312.191,852.305,818.241,843.943,851.963,0.000,0.000,0
1508374312.193,845.314,821.462,845.588,844.286,0.000,0.000,0
1508374312.195,846.617,822.353,848.536,851.209,0.000,0.000,0
1508374312.197,850.044,820.777,848.193,855.321,0.000,0.000,0
1508374312.199,848.193,820.091,847.576,854.293,0.000,0.000,0
1508374312.201,846.205,819.543,844.834,852.511,0.000,0.000,0
1508374312.203,852.511,819.954,843.806,849.564,0.000,0.000,0
1508374312.205,855.321,819.200,843.327,847.233,0.000,0.000,0
1508374312.207,863.889,817.213,844.492,854.841,0.000,0.000,0
1508374312.209,856.829,811.249,842.024,848.947,0.000,0.000,0
1508374312.211,847.165,814.265,840.105,843.875,0.000,0.000,0
1508374312.213,846.617,818.241,842.436,844.355,0.000,0.000,0
1508374312.215,847.370,818.241,843.738,848.056,0.000,0.000,0
1508374312.217,844.423,817.555,845.794,851.620,0.000,0.000,0
1508374312.219,842.641,814.539,848.399,851.140,0.000,0.000,0
1508374312.221,847.370,812.346,849.016,855.664,0.000,0.000,0
1508374312.223,846.685,814.539,846.891,851.826,0.000,0.000,0
1508374312.225,853.265,816.527,844.149,848.810,0.000,0.000,0
1508374312.227,852.785,818.241,843.669,841.202,0.000,0.000,0
1508374312.229,858.131,820.777,845.657,850.044,0.000,0.000,0
1508374312.231,849.769,821.119,845.314,853.882,0.000,0.000,0
1508374312.233,840.174,819.749,846.891,856.212,0.000,0.000,0
1508374312.235,839.625,819.269,847.439,855.116,0.000,0.000,0
1508374312.237,843.669,820.640,846.479,855.253,0.000,0.000,0
1508374312.239,848.673,821.668,845.040,853.950,0.000,0.000,0
1508374312.241,851.757,820.571,842.024,853.882,0.000,0.000,0
1508374312.243,850.729,821.942,841.682,850.181,0.000,0.000,0
1508374312.245,848.604,822.353,844.218,845.246,0.000,0.000,0
1508374312.247,853.128,821.462,844.081,840.242,0.000,0.000,0
1508374312.249,853.334,819.543,842.847,837.569,0.000,0.000,0
1508374312.251,852.237,819.406,842.436,842.367,0.000,0.000,0
1508374312.253,850.455,821.256,844.697,849.084,0.000,0.000,0
1508374312.255,849.016,821.393,846.137,852.100,0.000,0.000,0
1508374312.257,848.399,821.325,847.096,850.386,0.000,0.000,0
1508374312.259,844.766,822.079,848.330,842.504,0.000,0.000,0
1508374312.261,844.972,821.462,849.016,845.520,0.000,0.000,0
1508374312.263,851.003,822.079,849.221,852.991,0.000,0.000,0
1508374312.265,855.527,819.749,849.153,854.636,0.000,0.000,0
1508374312.267,863.272,818.857,848.878,851.414,0.000,0.000,0
1508374312.269,865.123,817.075,847.370,851.072,0.000,0.000,0
1508374312.271,857.720,815.293,845.177,856.007,0.000,0.000,0
1508374312.273,846.754,813.511,843.669,863.135,0.000,0.000,0
1508374312.275,844.355,814.060,843.875,856.692,0.000,0.000,0
1508374312.277,842.847,815.842,845.657,847.439,0.000,0.000,0
1508374312.279,847.850,818.515,849.153,849.906,0.000,0.000,0
1508374312.281,850.318,817.761,848.467,850.592,0.000,0.000,0
1508374312.283,848.810,818.583,847.165,851.003,0.000,0.000,0
1508374312.285,849.701,821.256,846.274,851.826,0.000,0.000,0
1508374312.287,854.979,822.764,847.028,856.075,0.000,0.000,0
1508374312.289,846.479,820.160,845.177,848.947,0.000,0.000,0
1508374312.291,842.230,820.091,843.943,850.181,0.000,0.000,0
1508374312.293,832.497,823.450,844.697,843.464,0.000,0.000,0
1508374312.295,838.117,825.437,846.000,843.052,0.000,0.000,0
1508374312.297,839.077,823.244,846.205,844.766,0.000,0.000,0
1508374312.299,840.996,822.216,844.081,845.520,0.000,0.000,0
1508374312.301,846.685,823.587,845.040,849.084,0.000,0.000,0
1508374312.303,844.629,820.434,844.903,852.237,0.000,0.000,0
1508374312.305,847.645,816.527,845.314,847.439,0.000,0.000,0
1508374312.307,855.870,815.910,846.342,849.221,0.000,0.000,0
1508374312.309,849.632,816.184,845.040,843.190,0.000,0.000,0
1508374312.311,845.314,819.406,845.040,840.448,0.000,0.000,0
1508374312.313,839.283,820.297,846.891,841.613,0.000,0.000,0
1508374312.315,837.912,821.393,847.645,845.520,0.000,0.000,0
1508374312.317,841.956,822.764,847.850,845.726,0.000,0.000,0
1508374312.319,847.096,823.450,847.508,841.202,0.000,0.000,0
1508374312.321,851.003,822.010,847.713,849.838,0.000,0.000,0
1508374312.323,845.314,819.611,846.685,849.016,0.000,0.000,0
1508374312.325,845.314,818.104,845.383,851.757,0.000,0.000,0
1508374312.327,843.875,814.745,843.532,841.956,0.000,0.000,0
1508374312.329,850.044,812.346,843.532,844.766,0.000,0.000,0
1508374312.331,857.035,814.882,844.903,848.878,0.000,0.000,0
1508374312.333,853.196,817.761,846.959,849.632,0.000,0.000,0
1508374312.335,851.209,816.733,848.193,856.007,0.000,0.000,0
1508374312.337,848.947,817.144,848.741,853.608,0.000,0.000,0
1508374312.339,854.156,821.051,847.713,854.704,0.000,0.000,0
1508374312.341,853.950,823.176,844.423,854.499,0.000,0.000,0
1508374312.343,857.172,822.147,843.327,857.446,0.000,0.000,0
1508374312.345,855.390,821.668,842.161,839.625,0.000,0.000,0
1508374312.347,856.624,817.350,842.504,847.302,0.000,0.000,0
1508374312.349,851.620,813.169,840.654,843.532,0.000,0.000,0
1508374312.351,846.411,816.047,842.161,839.968,0.000,0.000,0
1508374312.353,844.766,821.736,844.629,839.968,0.000,0.000,0
1508374312.355,848.056,823.313,844.903,845.109,0.000,0.000,0
1508374312.357,847.645,825.232,848.124,846.891,0.000,0.000,0
1508374312.359,851.689,823.792,847.302,849.701,0.000,0.000,0
1508374312.361,854.499,825.849,848.878,848.399,0.000,0.000,0
1508374312.363,862.381,825.643,846.274,853.539,0.000,0.000,0
1508374312.365,862.929,823.176,842.504,843.601,0.000,0.000,0
1508374312.367,863.066,822.147,841.682,841.750,0.000,0.000,0
1508374312.369,856.966,822.147,843.258,844.286,0.000,0.000,0
1508374312.371,856.281,825.712,844.081,846.411,0.000,0.000,0
1508374312.373,855.458,822.422,844.972,855.253,0.000,0.000,0
1508374312.375,845.863,814.608,847.645,856.007,0.000,0.000,0
1508374312.377,836.747,811.798,847.782,849.838,0.000,0.000,0
1508374312.379,840.379,818.035,848.467,849.221,0.000,0.000,0
1508374312.381,843.669,818.652,846.617,847.028,0.000,0.000,0
1508374312.383,848.262,820.982,847.987,845.588,0.000,0.000,0
1508374312.385,852.237,820.571,849.427,848.467,0.000,0.000,0
1508374312.387,856.898,817.418,847.850,859.228,0.000,0.000,0
1508374312.389,854.156,816.253,848.193,860.667,0.000,0.000,0
1508374312.391,855.595,819.132,846.479,858.954,0.000,0.000,0
1508374312.393,846.685,823.107,846.685,839.557,0.000,0.000,0
1508374312.395,847.508,826.328,849.153,837.843,0.000,0.000,0
1508374312.397,849.632,825.300,849.838,842.984,0.000,0.000,0
1508374312.399,846.959,822.216,849.084,842.024,0.000,0.000,0
1508374312.401,846.342,820.434,846.891,840.722,0.000,0.000,0
1508374312.403,845.109,818.446,846.891,845.451,0.000,0.000,0
1508374312.405,849.221,821.256,849.427,848.878,0.000,0.000,0
1508374312.407,859.502,821.736,849.084,859.434,0.000,0.000,0
1508374312.409,856.349,821.325,847.302,856.418,0.000,0.000,0
1508374312.411,848.124,822.079,847.028,850.523,0.000,0.000,0
1508374312.413,841.270,823.450,849.016,842.710,0.000,0.000,0
1508374312.415,836.061,822.285,848.810,844.081,0.000,0.000,0
1508374312.417,837.980,819.474,849.632,845.040,0.000,0.000,0
1508374312.419,846.685,818.720,849.564,843.532,0.000,0.000,0
1508374312.421,854.293,818.926,848.741,848.193,0.000,0.000,0
1508374312.423,851.894,821.668,849.838,847.096,0.000,0.000,0
1508374312.425,854.499,821.873,849.221,845.520,0.000,0.000,0
1508374312.427,855.321,826.123,848.741,840.174,0.000,0.000,0
1508374312.429,857.035,827.494,848.536,851.757,0.000,0.000,0
1508374312.431,851.757,824.204,847.096,853.676,0.000,0.000,0
1508374312.433,848.193,821.325,848.124,849.495,0.000,0.000,0
1508374312.435,844.423,819.543,848.604,846.000,0.000,0.000,0
1508374312.437,845.520,820.365,848.741,846.342,0.000,0.000,0
1508374312.439,855.390,818.720,847.576,850.729,0.000,0.000,0
1508374312.441,849.427,817.761,846.205,843.738,0.000,0.000,0
1508374312.443,838.666,816.527,845.451,839.900,0.000,0.000,0
1508374312.445,836.335,818.515,846.959,840.859,0.000,0.000,0
1508374312.447,841.202,814.951,845.726,843.327,0.000,0.000,0
1508374312.449,842.847,816.321,844.834,842.641,0.000,0.000,0
1508374312.451,845.246,822.216,846.068,843.190,0.000,0.000,0
1508374312.453,843.532,824.478,845.588,845.383,0.000,0.000,0
1508374312.455,840.516,825.917,845.794,843.806,0.000,0.000,0
1508374312.457,846.000,826.466,845.451,842.161,0.000,0.000,0
1508374312.459,847.233,824.546,847.782,840.174,0.000,0.000,0
1508374312.461,844.149,821.942,850.181,837.364,0.000,0.000,0
1508374312.463,849.838,818.104,849.358,842.230,0.000,0.000,0
1508374312.465,851.003,816.184,847.165,843.738,0.000,0.000,0
1508374312.467,855.527,818.720,845.588,843.327,0.000,0.000,0
1508374312.469,858.131,821.393,846.068,838.597,0.000,0.000,0
1508374312.471,855.870,823.244,846.822,849.221,0.000,0.000,0
1508374312.473,846.891,826.260,846.548,844.149,0.000,0.000,0
1508374312.475,837.980,826.054,843.943,835.719,0.000,0.000,0
1508374312.477,836.198,826.123,846.685,830.509,0.000,0.000,0
1508374312.479,842.093,823.998,848.399,841.270,0.000,0.000,0
1508374312.481,844.560,821.462,849.290,844.492,0.000,0.000,0
1508374312.483,843.738,819.611,847.713,835.102,0.000,0.000,0
1508374312.485,849.290,820.365,846.754,833.525,0.000,0.000,0
1508374312.487,853.813,820.571,847.645,841.407,0.000,0.000,0
1508374312.489,858.680,820.503,847.645,854.499,0.000,0.000,0
1508374312.491,854.430,820.434,847.576,849.153,0.000,0.000,0
1508374312.493,844.423,819.680,845.177,835.856,0.000,0.000,0
1508374312.495,845.177,823.313,847.508,836.267,0.000,0.000,0
1508374312.497,847.302,822.696,849.495,848.741,0.000,0.000,0
1508374312.499,849.906,819.954,852.374,850.249,0.000,0.000,0
1508374312.501,853.745,819.954,852.237,852.991,0.000,0.000,0
1508374312.503,852.443,820.434,851.826,854.019,0.000,0.000,0
1508374312.505,858.131,818.241,849.358,858.131,0.000,0.000,0
1508374312.507,858.268,816.664,849.153,850.249,0.000,0.000,0
1508374312.509,851.894,818.172,846.479,842.641,0.000,0.000,1
1508374312.511,845.451,823.313,847.919,839.968,0.000,0.000,0
1508374312.513,842.778,825.300,851.826,850.044,0.000,0.000,0
1508374312.515,840.448,825.232,853.950,850.660,0.000,0.000,0
1508374312.517,841.065,825.780,852.922,845.931,0.000,0.000,0
1508374312.519,839.625,823.039,850.729,842.504,0.000,0.000,0
1508374312.521,849.632,820.708,850.660,844.355,0.000,0.000,0
1508374312.523,857.720,815.362,849.975,850.798,0.000,0.000,0
1508374312.525,854.636,811.661,848.673,849.427,0.000,0.000,0
1508374312.527,854.773,812.963,846.959,852.100,0.000,0.000,0
1508374312.529,851.552,815.225,847.439,847.096,0.000,0.000,0
1508374312.531,848.330,819.886,847.233,843.943,0.000,0.000,0
1508374312.533,842.436,824.958,849.016,845.177,0.000,0.000,0
1508374312.535,837.775,827.836,851.209,847.439,0.000,0.000,0
1508374312.537,845.931,825.575,852.168,856.349,0.000,0.000,0
1508374312.539,846.685,822.970,850.318,848.330,0.000,0.000,0
1508374312.541,848.536,823.107,849.427,852.237,0.000,0.000,0
1508374312.543,843.190,822.010,848.673,839.488,0.000,0.000,0
1508374312.545,846.891,821.051,847.508,841.545,0.000,0.000,0
1508374312.547,853.882,821.051,847.233,843.738,0.000,0.000,0
1508374312.549,854.773,819.886,845.383,842.778,0.000,0.000,0
1508374312.551,852.305,822.422,845.657,847.370,0.000,0.000,0
1508374312.553,850.523,820.571,847.713,851.689,0.000,0.000,0
1508374312.555,852.168,819.337,847.850,852.922,0.000,0.000,0
1508374312.557,850.386,818.789,848.399,847.165,0.000,0.000,0
1508374312.559,849.221,820.503,847.096,841.613,0.000,0.000,0
1508374312.561,845.726,825.163,846.891,832.977,0.000,0.000,0
1508374312.563,847.850,821.531,846.548,838.597,0.000,0.000,0
1508374312.565,847.782,815.156,845.109,838.529,0.000,0.000,0
1508374312.567,849.358,813.991,843.395,837.364,0.000,0.000,0
1508374312.569,849.153,816.253,843.258,842.298,0.000,0.000,0
1508374312.571,846.548,820.777,844.629,842.847,0.000,0.000,0
1508374312.573,847.645,823.861,846.068,846.822,0.000,0.000,0
1508374312.575,845.177,822.833,845.314,842.915,0.000,0.000,0
1508374312.577,843.532,821.736,846.000,842.778,0.000,0.000,0
1508374312.579,841.613,822.901,844.149,839.351,0.000,0.000,0
1508374312.581,849.221,826.534,844.560,842.573,0.000,0.000,0
1508374312.583,850.592,825.369,845.657,842.367,0.000,0.000,0
1508374312.585,853.539,821.805,846.479,842.984,0.000,0.000,0
1508374312.587,855.390,819.063,846.548,848.330,0.000,0.000,0
1508374312.589,854.979,819.817,846.822,845.383,0.000,0.000,0
1508374312.591,854.567,821.188,846.068,851.346,0.000,0.000,0
1508374312.593,849.769,825.712,848.536,848.467,0.000,0.000,0
1508374312.595,853.402,827.768,850.523,858.406,0.000,0.000,0
1508374312.597,850.112,825.300,851.003,855.801,0.000,0.000,0
1508374312.599,843.258,824.889,850.455,850.592,0.000,0.000,0
1508374312.601,842.573,822.833,850.318,846.000,0.000,0.000,0
1508374312.603,842.230,820.503,848.536,839.900,0.000,0.000,0
1508374312.605,852.580,817.829,848.056,847.713,0.000,0.000,0
1508374312.607,852.305,814.334,846.342,845.109,0.000,0.000,0
1508374312.609,847.508,811.112,843.601,840.516,0.000,0.000,0
1508374312.611,851.003,813.648,845.177,843.875,0.000,0.000,0
1508374312.613,850.181,818.446,847.713,847.919,0.000,0.000,0
1508374312.615,838.049,820.228,848.193,842.847,0.000,0.000,0
1508374312.617,834.896,820.160,847.233,845.931,0.000,0.000,0
1508374312.619,847.508,821.325,845.657,849.632,0.000,0.000,0
1508374312.621,858.543,823.381,846.891,847.096,0.000,0.000,0
1508374312.623,858.474,823.313,845.931,849.769,0.000,0.000,0
1508374312.625,849.975,821.668,843.052,839.831,0.000,0.000,0
1508374312.627,850.112,816.733,843.327,836.335,0.000,0.000,0
1508374312.629,855.458,817.007,844.492,842.984,0.000,0.000,0
1508374312.631,857.240,820.914,846.891,844.081,0.000,0.000,0
1508374312.633,854.636,822.764,847.302,843.738,0.000,0.000,0
1508374312.635,846.754,825.643,847.576,843.121,0.000,0.000,0
1508374312.637,837.569,826.260,847.096,839.214,0.000,0.000,0
1508374312.639,835.033,823.244,845.863,845.314,0.000,0.000,0
1508374312.641,838.117,823.381,846.548,844.903,0.000,0.000,0
1508374312.643,845.451,822.833,847.302,846.479,0.000,0.000,0
1508374312.645,846.479,823.792,848.056,844.972,0.000,0.000,0
1508374312.647,849.358,822.216,846.411,843.875,0.000,0.000,0
1508374312.649,851.620,821.119,844.218,843.532,0.000,0.000,0
1508374312.651,848.741,818.446,843.327,850.455,0.000,0.000,0
1508374312.653,845.520,820.845,843.464,847.919,0.000,0.000,0
1508374312.655,853.745,824.067,844.766,851.072,0.000,0.000,0
1508374312.657,848.193,823.518,845.931,849.564,0.000,0.000,0
1508374312.659,852.237,821.531,847.370,846.617,0.000,0.000,0
1508374312.661,848.810,820.023,851.277,846.068,0.000,0.000,0
1508374312.663,849.016,814.265,850.935,851.689,0.000,0.000,0
1508374312.665,844.012,814.402,849.975,847.165,0.000,0.000,0
1508374312.667,847.370,818.378,847.850,840.654,0.000,0.000,0
1508374312.669,843.943,820.503,847.028,842.778,0.000,0.000,0
1508374312.671,847.919,820.365,849.701,852.237,0.000,0.000,0
1508374312.673,845.177,822.010,852.168,852.374,0.000,0.000,0
1508374312.675,842.161,822.627,851.483,845.246,0.000,0.000,0
1508374312.677,836.952,824.821,849.564,834.485,0.000,0.000,0
1508374312.679,839.214,824.204,848.467,837.432,0.000,0.000,0
1508374312.681,838.460,822.079,848.878,837.980,0.000,0.000,0
1508374312.683,844.903,821.462,848.878,842.230,0.000,0.000,0
1508374312.685,848.467,819.817,847.919,842.436,0.000,0.000,0
1508374312.687,846.822,818.309,845.109,836.473,0.000,0.000,0
1508374312.689,852.648,814.677,843.943,842.847,0.000,0.000,0
1508374312.691,848.673,814.402,842.161,839.762,0.000,0.000,0
1508374312.693,842.436,814.334,839.625,829.413,0.000,0.000,0
1508374312.695,837.912,816.938,843.190,830.989,0.000,0.000,0
1508374312.697,840.516,817.761,845.657,838.392,0.000,0.000,0
1508374312.699,844.423,818.309,847.850,846.205,0.000,0.000,0
1508374312.701,843.601,818.926,845.863,849.153,0.000,0.000,0
1508374312.703,851.552,819.954,844.423,847.508,0.000,0.000,0
1508374312.705,853.471,820.845,844.149,843.601,0.000,0.000,0
1508374312.707,854.499,817.898,845.794,845.246,0.000,0.000,0
1508374312.709,852.922,815.773,847.713,840.311,0.000,0.000,0
1508374312.711,855.321,818.241,849.358,840.242,0.000,0.000,0
1508374312.713,854.225,821.256,847.782,846.479,0.000,0.000,0
1508374312.715,847.028,822.079,846.959,847.028,0.000,0.000,0
1508374312.717,851.826,823.930,847.028,846.137,0.000,0.000,0
1508374312.719,860.393,824.067,848.878,850.729,0.000,0.000,0
1508374312.721,865.739,823.792,850.044,851.689,0.000,0.000,0
