timestamps,TP9,FP1,FP2,TP10,n/a,n/a,Marker0
1508373967.660,833.799,812.552,840.996,828.659,0.000,0.000,0
1508373967.662,833.731,809.879,839.283,828.933,0.000,0.000,0
1508373967.664,845.588,812.209,841.339,834.759,0.000,0.000,0
1508373967.666,852.237,809.742,841.956,832.292,0.000,0.000,0
1508373967.668,857.377,810.084,840.105,829.344,0.000,0.000,0
1508373967.670,850.798,811.249,841.613,827.014,0.000,0.000,0
1508373967.672,842.641,809.467,841.133,828.864,0.000,0.000,0
1508373967.674,836.541,808.097,840.379,830.921,0.000,0.000,0
1508373967.676,835.924,809.947,843.052,835.650,0.000,0.000,0
1508373967.678,834.416,812.483,845.383,836.130,0.000,0.000,0
1508373967.680,839.283,814.745,845.794,843.806,0.000,0.000,0
1508373967.682,842.230,812.072,844.355,844.423,0.000,0.000,0
1508373967.684,845.794,812.963,843.738,840.311,0.000,0.000,0
1508373967.686,840.516,812.757,839.420,824.067,0.000,0.000,0
1508373967.688,849.632,813.100,840.174,826.328,0.000,0.000,0
1508373967.690,857.240,812.757,841.407,833.251,0.000,0.000,0
1508373967.692,856.761,814.745,843.121,837.501,0.000,0.000,0
1508373967.694,847.645,818.720,844.149,842.230,0.000,0.000,0
1508373967.696,840.585,821.325,845.520,847.782,0.000,0.000,0
1508373967.698,840.722,819.269,843.875,851.346,0.000,0.000,0
1508373967.700,841.887,819.474,844.081,844.629,0.000,0.000,0
1508373967.702,838.392,815.293,842.778,830.647,0.000,0.000,0
1508373967.704,845.863,815.910,845.109,833.936,0.000,0.000,0
1508373967.706,849.358,814.334,841.956,831.538,0.000,0.000,0
1508373967.708,851.346,813.648,841.682,832.497,0.000,0.000,0
1508373967.710,851.072,813.854,843.806,834.828,0.000,0.000,0
1508373967.712,850.660,811.935,844.560,834.348,0.000,0.000,0
1508373967.714,849.975,810.153,843.395,843.052,0.000,0.000,0
1508373967.716,836.541,813.511,843.875,844.629,0.000,0.000,0
1508373967.718,824.067,813.032,845.726,843.327,0.000,0.000,0
1508373967.720,825.712,812.072,844.697,835.444,0.000,0.000,0
1508373967.722,834.622,813.237,844.834,836.678,0.000,0.000,0
1508373967.724,842.641,814.539,843.943,840.516,0.000,0.000,0
1508373967.726,850.660,813.923,843.532,840.791,0.000,0.000,0
1508373967.728,857.926,810.838,843.395,837.980,0.000,0.000,0
1508373967.730,863.409,808.302,842.504,845.177,0.000,0.000,0
1508373967.732,852.648,806.520,838.666,844.697,0.000,0.000,0
1508373967.734,838.117,807.822,838.529,841.887,0.000,0.000,0
1508373967.736,828.385,814.471,840.928,830.509,0.000,0.000,0
1508373967.738,828.316,819.406,843.327,833.868,0.000,0.000,0
1508373967.740,831.195,816.801,842.573,832.840,0.000,0.000,0
1508373967.742,840.928,811.661,845.177,833.525,0.000,0.000,0
1508373967.744,844.697,810.496,845.383,834.074,0.000,0.000,0
1508373967.746,852.922,812.483,843.601,832.086,0.000,0.000,0
1508373967.748,858.200,812.141,842.230,841.819,0.000,0.000,0
1508373967.750,853.676,813.511,842.915,841.133,0.000,0.000,0
1508373967.752,839.968,812.620,840.859,828.590,0.000,0.000,0
1508373967.754,839.351,813.785,842.436,827.768,0.000,0.000,0
1508373967.756,836.952,812.894,841.613,825.437,0.000,0.000,0
1508373967.758,831.538,813.237,843.258,825.917,0.000,0.000,0
1508373967.760,831.058,816.253,845.314,828.522,0.000,0.000,0
1508373967.762,839.351,817.692,846.754,840.174,0.000,0.000,0
1508373967.764,842.847,818.515,844.423,830.921,0.000,0.000,0
1508373967.766,846.754,817.350,842.230,826.877,0.000,0.000,0
1508373967.768,844.766,816.459,844.012,819.474,0.000,0.000,0
1508373967.770,853.539,817.075,844.834,834.553,0.000,0.000,0
1508373967.772,851.003,818.172,843.532,842.367,0.000,0.000,0
1508373967.774,843.258,817.213,843.052,844.972,0.000,0.000,0
1508373967.776,832.360,817.692,843.532,840.859,0.000,0.000,0
1508373967.778,825.232,817.281,843.532,834.211,0.000,0.000,0
1508373967.780,832.566,817.281,845.246,837.226,0.000,0.000,0
1508373967.782,848.056,819.063,845.314,848.673,0.000,0.000,0
1508373967.784,853.128,818.515,845.794,842.504,0.000,0.000,0
1508373967.786,851.689,815.568,845.657,844.766,0.000,0.000,0
1508373967.788,848.330,815.430,846.205,844.492,0.000,0.000,0
1508373967.790,848.262,815.705,845.451,839.625,0.000,0.000,0
1508373967.792,851.689,817.761,845.383,837.364,0.000,0.000,0
1508373967.794,849.084,819.749,846.754,839.009,0.000,0.000,0
1508373967.796,845.109,816.527,844.766,841.407,0.000,0.000,0
1508373967.798,836.404,813.511,844.355,835.444,0.000,0.000,0
1508373967.800,842.915,811.729,841.819,835.033,0.000,0.000,0
1508373967.802,845.657,813.923,842.024,836.952,0.000,0.000,0
1508373967.804,845.657,813.648,842.847,839.009,0.000,0.000,0
1508373967.806,847.370,813.169,842.847,836.610,0.000,0.000,0
1508373967.808,857.994,814.814,842.093,834.485,0.000,0.000,0
1508373967.810,862.449,816.527,843.875,841.819,0.000,0.000,0
1508373967.812,841.545,813.991,843.669,838.117,0.000,0.000,0
1508373967.814,838.117,811.112,845.657,846.068,0.000,0.000,0
1508373967.816,833.320,808.234,846.411,847.850,0.000,0.000,0
1508373967.818,834.416,813.306,846.479,838.803,0.000,0.000,0
1508373967.820,832.977,813.511,843.669,829.893,0.000,0.000,0
1508373967.822,833.114,813.374,842.778,827.288,0.000,0.000,0
1508373967.824,833.594,814.334,843.875,827.973,0.000,0.000,0
1508373967.826,844.697,816.047,844.081,832.703,0.000,0.000,0
1508373967.828,859.022,815.773,844.423,836.404,0.000,0.000,0
1508373967.830,861.284,816.459,847.370,845.863,0.000,0.000,0
1508373967.832,848.536,813.991,847.165,847.919,0.000,0.000,0
1508373967.834,836.267,815.499,847.850,844.218,0.000,0.000,0
1508373967.836,826.740,816.527,847.439,833.936,0.000,0.000,0
1508373967.838,829.687,816.733,846.959,836.815,0.000,0.000,0
1508373967.840,832.154,816.253,845.863,836.130,0.000,0.000,0
1508373967.842,835.993,813.237,845.794,837.569,0.000,0.000,0
1508373967.844,842.436,809.536,846.754,837.706,0.000,0.000,0
1508373967.846,844.149,811.249,845.177,835.307,0.000,0.000,0
1508373967.848,849.769,812.209,843.601,847.028,0.000,0.000,0
1508373967.850,848.673,809.604,842.847,839.831,0.000,0.000,0
1508373967.852,836.541,810.564,842.915,834.005,0.000,0.000,0
1508373967.854,833.457,813.785,846.617,839.146,0.000,0.000,0
1508373967.856,833.799,813.374,846.617,840.379,0.000,0.000,0
1508373967.858,829.550,814.951,847.508,841.270,0.000,0.000,0
1508373967.860,824.409,814.265,847.370,836.678,0.000,0.000,0
1508373967.862,833.388,814.677,847.370,842.778,0.000,0.000,0
1508373967.864,844.286,812.346,845.588,838.392,0.000,0.000,0
1508373967.866,849.769,811.387,841.202,834.553,0.000,0.000,0
1508373967.868,843.327,813.717,840.654,826.671,0.000,0.000,0
1508373967.870,849.564,816.801,843.532,841.476,0.000,0.000,0
1508373967.872,850.660,818.857,845.726,846.617,0.000,0.000,0
1508373967.874,838.871,820.503,846.548,841.887,0.000,0.000,0
1508373967.876,831.743,821.462,845.931,836.815,0.000,0.000,0
1508373967.878,836.404,819.817,845.931,832.771,0.000,0.000,0
1508373967.880,840.174,813.854,846.754,835.033,0.000,0.000,0
1508373967.882,850.455,813.923,850.729,855.253,0.000,0.000,0
1508373967.884,852.511,816.253,848.741,850.386,0.000,0.000,0
1508373967.886,856.555,814.951,847.576,842.984,0.000,0.000,0
1508373967.888,863.889,815.842,847.508,846.617,0.000,0.000,0
1508373967.890,866.151,814.265,846.274,850.935,0.000,0.000,0
1508373967.892,860.051,814.128,846.822,843.395,0.000,0.000,0
1508373967.894,848.741,812.826,846.411,837.912,0.000,0.000,0
1508373967.896,840.654,811.661,847.028,847.576,0.000,0.000,0
1508373967.898,838.049,812.415,845.520,841.682,0.000,0.000,0
1508373967.900,837.569,813.306,844.081,839.009,0.000,0.000,0
1508373967.902,839.762,813.237,844.560,831.743,0.000,0.000,0
1508373967.904,853.196,810.770,844.697,838.597,0.000,0.000,0
1508373967.906,855.938,808.782,841.956,833.320,0.000,0.000,0
1508373967.908,861.490,808.645,841.065,832.292,0.000,0.000,0
1508373967.910,862.998,810.564,844.081,838.666,0.000,0.000,0
1508373967.912,855.321,813.169,845.246,844.081,0.000,0.000,0
1508373967.914,844.560,813.854,847.096,852.374,0.000,0.000,0
1508373967.916,825.026,812.415,845.863,849.427,0.000,0.000,0
1508373967.918,822.764,811.524,844.697,845.109,0.000,0.000,0
1508373967.920,824.546,812.072,846.342,837.706,0.000,0.000,0
1508373967.922,830.921,816.047,847.370,841.476,0.000,0.000,0
1508373967.924,834.965,817.487,846.959,843.806,0.000,0.000,0
1508373967.926,842.230,814.951,845.246,849.906,0.000,0.000,0
1508373967.928,848.330,811.592,846.548,850.455,0.000,0.000,0
1508373967.930,854.773,809.399,846.754,858.337,0.000,0.000,0
1508373967.932,850.523,809.467,845.383,849.632,0.000,0.000,0
1508373967.934,830.304,811.044,842.573,832.566,0.000,0.000,0
1508373967.936,824.272,815.019,844.492,823.107,0.000,0.000,0
1508373967.938,830.441,816.047,843.943,832.634,0.000,0.000,0
1508373967.940,836.130,814.951,846.205,834.279,0.000,0.000,0
1508373967.942,843.464,811.112,846.411,833.251,0.000,0.000,0
1508373967.944,850.592,810.016,844.903,833.251,0.000,0.000,0
1508373967.946,859.571,809.536,845.314,847.576,0.000,0.000,0
1508373967.948,859.708,808.919,844.766,849.153,0.000,0.000,0
1508373967.950,850.935,810.358,844.903,838.323,0.000,0.000,0
1508373967.952,851.414,815.636,847.919,853.676,0.000,0.000,0
1508373967.954,839.968,818.515,846.137,850.455,0.000,0.000,0
1508373967.956,836.267,819.749,845.314,837.843,0.000,0.000,0
1508373967.958,836.747,820.845,846.411,835.787,0.000,0.000,0
1508373967.960,844.149,819.063,848.056,835.924,0.000,0.000,0
1508373967.962,844.492,819.954,848.741,833.731,0.000,0.000,0
1508373967.964,847.439,818.926,849.427,839.694,0.000,0.000,0
1508373967.966,852.237,819.200,846.891,839.900,0.000,0.000,0
1508373967.968,862.312,818.583,845.109,844.697,0.000,0.000,0
1508373967.970,854.088,821.462,843.669,837.364,0.000,0.000,0
1508373967.972,840.379,820.503,843.532,834.211,0.000,0.000,0
1508373967.974,829.755,816.596,844.423,836.130,0.000,0.000,0
1508373967.976,827.973,815.568,844.697,842.367,0.000,0.000,0
1508373967.978,829.755,813.374,843.395,837.843,0.000,0.000,0
1508373967.980,834.074,811.181,846.617,844.423,0.000,0.000,0
1508373967.982,839.214,810.358,847.576,841.065,0.000,0.000,0
1508373967.984,844.697,810.153,846.548,831.058,0.000,0.000,0
1508373967.986,846.891,813.717,848.467,830.921,0.000,0.000,0
1508373967.988,849.632,813.717,845.451,837.569,0.000,0.000,0
1508373967.990,849.632,812.415,841.750,835.170,0.000,0.000,0
1508373967.992,846.548,812.141,842.504,835.650,0.000,0.000,0
1508373967.994,832.771,812.757,841.750,836.267,0.000,0.000,0
1508373967.996,833.936,815.225,841.270,847.028,0.000,0.000,0
1508373967.998,831.949,814.882,841.887,842.298,0.000,0.000,0
1508373968.000,831.743,813.511,841.270,835.239,0.000,0.000,0
1508373968.002,834.416,815.910,841.613,829.207,0.000,0.000,0
1508373968.004,852.511,818.035,843.669,837.158,0.000,0.000,0
1508373968.006,859.913,812.689,843.601,836.130,0.000,0.000,0
1508373968.008,860.256,809.125,842.641,840.242,0.000,0.000,0
1508373968.010,851.894,809.810,842.984,843.601,0.000,0.000,0
1508373968.012,850.386,812.278,842.367,844.697,0.000,0.000,0
1508373968.014,854.499,816.801,843.052,860.599,0.000,0.000,0
1508373968.016,841.065,818.241,844.081,849.975,0.000,0.000,0
1508373968.018,828.385,815.225,843.190,836.404,0.000,0.000,0
1508373968.020,839.557,810.221,843.669,840.037,0.000,0.000,0
1508373968.022,851.346,811.524,844.972,844.903,0.000,0.000,0
1508373968.024,848.741,813.923,842.367,843.738,0.000,0.000,0
1508373968.026,847.987,814.745,842.984,839.283,0.000,0.000,0
1508373968.028,854.704,813.169,845.177,838.323,0.000,0.000,0
1508373968.030,863.135,813.100,845.314,851.209,0.000,0.000,0
1508373968.032,861.284,812.963,845.726,850.729,0.000,0.000,0
1508373968.034,845.451,811.524,841.407,836.061,0.000,0.000,0
1508373968.036,830.372,811.524,839.146,822.353,0.000,0.000,0
1508373968.038,828.179,810.290,839.831,826.191,0.000,0.000,0
1508373968.040,834.142,812.346,840.722,833.045,0.000,0.000,0
1508373968.042,837.364,814.128,842.230,839.214,0.000,0.000,0
1508373968.044,846.754,817.281,844.218,838.049,0.000,0.000,0
1508373968.046,859.913,817.692,845.109,849.495,0.000,0.000,0
1508373968.048,863.683,818.583,845.246,843.327,0.000,0.000,0
1508373968.050,861.558,816.390,842.504,834.485,0.000,0.000,0
1508373968.052,854.019,814.539,843.532,827.425,0.000,0.000,0
1508373968.054,852.648,814.471,845.177,838.734,0.000,0.000,0
1508373968.056,837.775,814.539,843.738,837.021,0.000,0.000,0
1508373968.058,829.481,814.128,842.710,837.364,0.000,0.000,0
1508373968.060,837.706,813.443,840.996,833.457,0.000,0.000,0
1508373968.062,853.265,813.717,843.395,846.685,0.000,0.000,0
1508373968.064,852.648,814.128,841.613,841.956,0.000,0.000,0
1508373968.066,852.580,814.402,839.557,837.569,0.000,0.000,0
1508373968.068,850.866,815.019,839.077,828.111,0.000,0.000,0
1508373968.070,859.982,816.459,840.242,842.093,0.000,0.000,0
1508373968.072,860.599,814.745,840.448,849.701,0.000,0.000,0
1508373968.074,855.458,813.580,841.270,844.218,0.000,0.000,0
1508373968.076,852.305,812.757,842.230,841.956,0.000,0.000,0
1508373968.078,844.149,810.153,840.996,838.940,0.000,0.000,0
1508373968.080,841.956,809.673,840.654,844.492,0.000,0.000,0
1508373968.082,843.464,810.633,840.242,851.003,0.000,0.000,0
1508373968.084,846.754,811.729,840.174,840.174,0.000,0.000,0
1508373968.086,845.863,811.455,841.750,832.977,0.000,0.000,0
1508373968.088,854.088,812.141,842.641,836.678,0.000,0.000,0
1508373968.090,856.418,812.346,840.996,835.513,0.000,0.000,0
1508373968.092,853.745,812.620,840.928,834.279,0.000,0.000,0
1508373968.094,854.019,811.112,843.395,842.024,0.000,0.000,0
1508373968.096,844.081,807.411,845.863,846.959,0.000,0.000,0
1508373968.098,835.650,805.972,845.109,841.133,0.000,0.000,0
1508373968.100,829.002,806.863,843.738,828.179,0.000,0.000,0
1508373968.102,836.541,809.947,844.834,830.030,0.000,0.000,0
1508373968.104,853.334,811.798,846.754,840.928,0.000,0.000,0
1508373968.106,856.349,809.947,844.560,837.706,0.000,0.000,0
1508373968.108,856.075,809.879,840.928,832.566,0.000,0.000,0
1508373968.110,853.265,812.552,840.996,835.033,0.000,0.000,0
1508373968.112,848.947,814.539,840.791,836.884,0.000,0.000,0
1508373968.114,846.754,813.717,840.037,845.794,0.000,0.000,0
1508373968.116,842.093,815.088,841.476,843.190,0.000,0.000,0
1508373968.118,833.799,813.169,839.077,836.747,0.000,0.000,0
1508373968.120,832.017,813.374,840.996,838.117,0.000,0.000,0
1508373968.122,835.650,814.060,841.613,838.049,0.000,0.000,0
1508373968.124,842.641,813.374,843.943,836.815,0.000,0.000,0
1508373968.126,850.044,808.302,841.407,837.706,0.000,0.000,0
1508373968.128,859.160,807.274,841.133,836.335,0.000,0.000,0
1508373968.130,864.780,808.371,843.052,843.052,0.000,0.000,0
1508373968.132,856.007,809.742,844.355,839.420,0.000,0.000,0
1508373968.134,843.875,810.496,845.040,835.170,0.000,0.000,0
1508373968.136,832.360,812.894,847.439,836.815,0.000,0.000,0
1508373968.138,824.821,814.882,847.713,835.581,0.000,0.000,0
1508373968.140,827.425,816.938,845.863,835.513,0.000,0.000,0
1508373968.142,833.251,818.720,846.342,832.497,0.000,0.000,0
1508373968.144,840.585,815.636,847.576,832.017,0.000,0.000,0
1508373968.146,855.595,812.209,850.386,852.305,0.000,0.000,0
1508373968.148,855.732,810.564,848.193,847.096,0.000,0.000,0
1508373968.150,847.439,808.371,844.766,835.719,0.000,0.000,0
1508373968.152,837.501,810.975,842.298,831.538,0.000,0.000,0
1508373968.154,843.532,815.568,843.532,838.255,0.000,0.000,0
1508373968.156,843.601,817.007,845.314,835.787,0.000,0.000,0
1508373968.158,846.137,815.156,847.508,832.840,0.000,0.000,0
1508373968.160,845.657,815.773,848.056,831.332,0.000,0.000,0
1508373968.162,847.302,817.624,847.645,832.017,0.000,0.000,0
1508373968.164,853.882,816.116,847.233,843.601,0.000,0.000,0
1508373968.166,853.950,815.225,847.302,843.327,0.000,0.000,0
1508373968.168,850.181,812.689,845.588,833.114,0.000,0.000,0
1508373968.170,852.237,812.552,845.314,830.509,0.000,0.000,0
1508373968.172,851.072,812.689,844.218,835.102,0.000,0.000,0
1508373968.174,841.339,814.677,845.657,843.121,0.000,0.000,0
1508373968.176,835.719,817.418,847.096,842.367,0.000,0.000,0
1508373968.178,839.146,820.503,848.399,850.866,0.000,0.000,0
1508373968.180,836.335,819.611,848.810,847.508,0.000,0.000,0
1508373968.182,842.710,819.817,848.810,850.044,0.000,0.000,0
1508373968.184,840.448,818.309,845.726,839.968,0.000,0.000,0
1508373968.186,855.938,817.144,844.629,842.161,0.000,0.000,0
1508373968.188,863.135,815.842,844.012,846.137,0.000,0.000,0
1508373968.190,852.922,814.265,845.314,845.657,0.000,0.000,0
1508373968.192,844.218,815.842,846.205,844.766,0.000,0.000,0
1508373968.194,841.202,814.814,848.604,841.476,0.000,0.000,0
1508373968.196,839.694,811.524,849.221,840.379,0.000,0.000,0
1508373968.198,842.710,811.524,850.592,841.682,0.000,0.000,0
1508373968.200,840.174,810.290,847.370,838.392,0.000,0.000,0
1508373968.202,840.448,812.209,847.508,828.796,0.000,0.000,0
1508373968.204,845.383,815.979,847.782,829.344,0.000,0.000,0
1508373968.206,852.237,815.499,849.564,839.625,0.000,0.000,0
1508373968.208,856.418,815.088,849.564,844.697,0.000,0.000,0
1508373968.210,856.212,815.430,849.427,853.128,0.000,0.000,0
1508373968.212,858.474,813.923,847.919,858.954,0.000,0.000,0
1508373968.214,848.467,814.814,847.165,846.000,0.000,0.000,0
1508373968.216,831.058,815.773,845.794,835.102,0.000,0.000,0
1508373968.218,833.045,816.253,846.754,843.190,0.000,0.000,0
1508373968.220,837.638,817.487,846.959,834.348,0.000,0.000,0
1508373968.222,840.174,817.829,846.137,816.733,0.000,0.000,0
1508373968.224,838.049,816.253,844.492,815.773,0.000,0.000,0
1508373968.226,837.158,814.197,842.710,822.696,0.000,0.000,0
1508373968.228,845.383,813.374,842.298,828.522,0.000,0.000,0
1508373968.230,859.708,815.979,843.532,844.834,0.000,0.000,0
1508373968.232,856.281,817.418,843.738,846.205,0.000,0.000,0
1508373968.234,841.887,818.309,843.464,839.077,0.000,0.000,0
1508373968.236,836.815,822.559,844.560,827.905,0.000,0.000,0
1508373968.238,837.638,824.546,845.451,827.357,0.000,0.000,0
1508373968.240,838.529,819.611,842.504,826.466,0.000,0.000,0
1508373968.242,847.165,816.321,842.641,832.634,0.000,0.000,0
1508373968.244,847.439,813.991,842.984,836.541,0.000,0.000,0
1508373968.246,854.910,813.923,843.943,851.552,0.000,0.000,0
1508373968.248,857.720,813.169,842.710,848.056,0.000,0.000,0
1508373968.250,854.979,812.552,840.928,841.133,0.000,0.000,0
1508373968.252,852.717,815.430,842.436,832.223,0.000,0.000,0
1508373968.254,856.075,819.132,844.560,840.037,0.000,0.000,0
1508373968.256,847.850,820.228,847.165,839.077,0.000,0.000,0
1508373968.258,836.404,818.446,847.987,835.033,0.000,0.000,0
1508373968.260,834.485,817.829,846.959,835.650,0.000,0.000,0
1508373968.262,840.379,818.446,848.810,838.529,0.000,0.000,0
1508373968.264,844.012,819.749,849.769,850.386,0.000,0.000,0
1508373968.266,843.943,817.555,848.947,849.564,0.000,0.000,0
1508373968.268,843.943,814.951,845.177,837.843,0.000,0.000,0
1508373968.270,849.632,817.144,846.617,838.803,0.000,0.000,0
1508373968.272,848.193,816.321,845.657,842.230,0.000,0.000,0
1508373968.274,843.875,813.785,845.931,844.286,0.000,0.000,0
1508373968.276,840.242,811.935,845.314,838.940,0.000,0.000,0
1508373968.278,843.258,812.894,845.314,843.943,0.000,0.000,0
1508373968.280,839.214,813.854,843.875,836.747,0.000,0.000,0
1508373968.282,845.931,816.801,845.246,844.697,0.000,0.000,0
1508373968.284,840.105,816.801,845.314,831.812,0.000,0.000,0
1508373968.286,847.850,815.705,847.028,839.762,0.000,0.000,0
1508373968.288,855.390,810.153,846.822,844.286,0.000,0.000,0
1508373968.290,859.022,810.838,844.218,836.815,0.000,0.000,0
1508373968.292,854.841,811.661,844.286,832.771,0.000,0.000,0
1508373968.294,836.473,814.060,844.149,836.884,0.000,0.000,0
1508373968.296,824.204,815.773,844.492,838.049,0.000,0.000,0
1508373968.298,830.167,813.854,846.411,852.580,0.000,0.000,0
1508373968.300,831.332,814.197,846.548,844.834,0.000,0.000,0
1508373968.302,826.945,813.923,846.754,832.977,0.000,0.000,0
1508373968.304,833.320,812.209,848.536,842.915,0.000,0.000,0
1508373968.306,843.464,814.539,848.262,842.847,0.000,0.000,0
1508373968.308,853.539,815.088,849.084,841.545,0.000,0.000,0
1508373968.310,855.938,811.524,847.096,833.731,0.000,0.000,0
1508373968.312,853.128,811.181,845.520,838.803,0.000,0.000,0
1508373968.314,842.641,810.290,846.411,839.762,0.000,0.000,0
1508373968.316,833.662,809.536,845.726,836.061,0.000,0.000,0
1508373968.318,828.796,809.330,846.137,836.541,0.000,0.000,0
1508373968.320,826.397,810.907,846.274,834.828,0.000,0.000,0
1508373968.322,833.320,809.947,845.931,836.335,0.000,0.000,0
1508373968.324,844.629,809.673,846.479,838.803,0.000,0.000,0
1508373968.326,847.165,809.399,846.479,841.065,0.000,0.000,0
1508373968.328,846.754,809.536,842.847,836.267,0.000,0.000,0
1508373968.330,849.701,809.330,842.161,845.657,0.000,0.000,0
1508373968.332,843.190,809.467,842.504,847.302,0.000,0.000,0
1508373968.334,833.320,807.891,841.613,835.170,0.000,0.000,0
1508373968.336,828.042,813.648,843.806,826.808,0.000,0.000,0
1508373968.338,832.429,817.213,844.081,831.880,0.000,0.000,0
1508373968.340,833.525,821.051,844.560,835.993,0.000,0.000,0
1508373968.342,832.703,822.147,844.766,840.242,0.000,0.000,0
1508373968.344,835.719,821.325,845.657,838.049,0.000,0.000,0
1508373968.346,846.411,821.119,846.822,850.249,0.000,0.000,0
1508373968.348,844.834,817.281,844.903,843.806,0.000,0.000,0
1508373968.350,848.124,814.402,842.367,840.105,0.000,0.000,0
1508373968.352,841.613,813.306,842.504,837.638,0.000,0.000,0
1508373968.354,840.585,816.116,844.286,845.588,0.000,0.000,0
1508373968.356,835.581,817.555,846.137,847.165,0.000,0.000,0
1508373968.358,830.989,816.527,844.218,838.666,0.000,0.000,0
1508373968.360,831.058,813.443,841.407,833.114,0.000,0.000,0
1508373968.362,832.566,813.854,839.831,831.538,0.000,0.000,0
1508373968.364,844.560,816.253,840.242,844.081,0.000,0.000,0
1508373968.366,854.430,815.362,843.258,845.040,0.000,0.000,0
1508373968.368,857.789,815.430,839.283,835.719,0.000,0.000,0
1508373968.370,857.720,817.692,839.694,836.473,0.000,0.000,0
1508373968.372,847.096,817.898,839.488,833.525,0.000,0.000,0
1508373968.374,835.581,816.664,838.734,830.647,0.000,0.000,0
1508373968.376,828.590,815.225,840.516,829.893,0.000,0.000,0
1508373968.378,832.292,814.745,842.504,843.464,0.000,0.000,0
1508373968.380,840.722,813.443,845.246,845.246,0.000,0.000,0
1508373968.382,840.037,810.838,845.040,835.787,0.000,0.000,0
1508373968.384,839.557,810.770,845.177,834.759,0.000,0.000,0
1508373968.386,841.545,811.866,843.669,845.040,0.000,0.000,0
1508373968.388,845.794,810.358,840.722,842.367,0.000,0.000,0
1508373968.390,849.495,812.209,843.943,840.791,0.000,0.000,0
1508373968.392,848.124,814.128,845.520,843.738,0.000,0.000,0
1508373968.394,841.750,816.459,845.931,848.536,0.000,0.000,0
1508373968.396,837.912,816.664,845.451,848.536,0.000,0.000,0
1508373968.398,842.847,817.144,846.137,857.926,0.000,0.000,0
1508373968.400,838.255,818.104,848.262,849.975,0.000,0.000,0
1508373968.402,823.998,815.842,846.548,834.759,0.000,0.000,0
1508373968.404,832.223,815.705,843.395,830.098,0.000,0.000,0
1508373968.406,844.081,816.116,841.065,828.248,0.000,0.000,0
1508373968.408,850.523,814.334,841.202,830.921,0.000,0.000,0
1508373968.410,851.757,812.346,842.504,840.722,0.000,0.000,0
1508373968.412,855.732,812.278,843.258,848.604,0.000,0.000,0
1508373968.414,842.710,810.975,842.298,843.327,0.000,0.000,0
1508373968.416,830.235,812.072,841.682,836.473,0.000,0.000,0
1508373968.418,817.555,813.785,842.367,824.341,0.000,0.000,0
1508373968.420,829.618,813.237,842.024,835.581,0.000,0.000,0
1508373968.422,841.065,812.278,841.750,837.226,0.000,0.000,0
1508373968.424,846.617,810.907,839.831,831.400,0.000,0.000,0
1508373968.426,838.871,803.093,838.803,830.647,0.000,0.000,0
1508373968.428,838.460,800.352,839.283,837.569,0.000,0.000,0
1508373968.430,852.100,805.698,843.395,857.994,0.000,0.000,0
1508373968.432,849.290,807.000,842.024,849.838,0.000,0.000,0
1508373968.434,839.557,808.851,840.791,835.444,0.000,0.000,0
1508373968.436,829.893,813.169,843.121,836.335,0.000,0.000,0
1508373968.438,825.780,811.387,841.956,838.460,0.000,0.000,0
1508373968.440,828.522,814.402,841.407,840.585,0.000,0.000,0
1508373968.442,838.940,816.733,841.613,840.379,0.000,0.000,0
1508373968.444,847.096,817.213,843.258,838.734,0.000,0.000,0
1508373968.446,849.495,816.938,844.972,842.573,0.000,0.000,0
1508373968.448,847.782,816.047,845.177,835.924,0.000,0.000,0
1508373968.450,847.165,815.225,843.258,834.416,0.000,0.000,0
1508373968.452,856.692,813.443,840.105,841.476,0.000,0.000,0
1508373968.454,848.947,812.552,842.230,843.601,0.000,0.000,0
1508373968.456,837.158,812.757,841.887,842.436,0.000,0.000,0
1508373968.458,826.945,813.100,844.492,838.117,0.000,0.000,0
1508373968.460,822.970,811.592,844.012,832.634,0.000,0.000,0
1508373968.462,830.030,811.387,842.915,834.690,0.000,0.000,0
1508373968.464,835.719,809.330,844.423,837.364,0.000,0.000,0
1508373968.466,841.407,808.508,845.109,842.367,0.000,0.000,0
1508373968.468,844.629,809.742,846.411,843.327,0.000,0.000,0
1508373968.470,849.769,808.234,842.024,842.504,0.000,0.000,0
1508373968.472,851.414,805.286,839.214,843.190,0.000,0.000,1
1508373968.474,841.750,805.355,840.311,846.479,0.000,0.000,0
1508373968.476,826.191,806.794,844.012,838.940,0.000,0.000,0
1508373968.478,825.369,811.249,843.943,825.712,0.000,0.000,0
1508373968.480,831.126,816.596,844.492,823.792,0.000,0.000,0
1508373968.482,834.211,815.362,842.778,832.429,0.000,0.000,0
1508373968.484,842.298,814.608,843.669,839.214,0.000,0.000,0
1508373968.486,841.065,812.483,843.943,831.195,0.000,0.000,0
1508373968.488,844.560,812.894,843.190,830.715,0.000,0.000,0
1508373968.490,845.588,812.346,844.081,834.005,0.000,0.000,0
1508373968.492,845.931,813.854,845.383,838.803,0.000,0.000,0
1508373968.494,844.766,815.156,847.508,844.355,0.000,0.000,0
1508373968.496,836.404,816.253,845.040,843.395,0.000,0.000,0
1508373968.498,833.251,818.172,843.738,843.601,0.000,0.000,0
1508373968.500,825.849,818.926,841.202,821.531,0.000,0.000,0
1508373968.502,832.566,819.406,841.887,824.683,0.000,0.000,0
1508373968.504,845.314,816.116,842.436,836.404,0.000,0.000,0
1508373968.506,843.395,816.459,843.121,834.965,0.000,0.000,0
1508373968.508,842.230,816.321,843.875,834.005,0.000,0.000,0
1508373968.510,848.124,814.608,842.778,832.360,0.000,0.000,0
1508373968.512,848.193,814.814,840.722,830.852,0.000,0.000,0
1508373968.514,846.411,816.047,842.024,843.327,0.000,0.000,0
1508373968.516,838.117,814.882,840.379,848.330,0.000,0.000,0
1508373968.518,834.142,813.374,842.024,838.940,0.000,0.000,0
1508373968.520,831.880,810.975,843.258,829.550,0.000,0.000,0
1508373968.522,835.102,811.318,844.355,832.086,0.000,0.000,0
1508373968.524,838.255,814.951,846.068,830.921,0.000,0.000,0
1508373968.526,844.286,817.007,845.520,831.949,0.000,0.000,0
1508373968.528,856.075,814.471,844.972,844.081,0.000,0.000,0
1508373968.530,856.486,812.415,844.081,841.476,0.000,0.000,0
1508373968.532,857.926,814.197,845.520,844.972,0.000,0.000,0
1508373968.534,845.177,813.923,845.794,835.102,0.000,0.000,0
1508373968.536,845.177,815.225,848.399,839.762,0.000,0.000,0
1508373968.538,839.625,814.197,850.523,845.109,0.000,0.000,0
1508373968.540,832.154,810.221,848.673,837.706,0.000,0.000,0
1508373968.542,832.429,809.467,847.370,838.597,0.000,0.000,0
1508373968.544,841.202,812.278,846.617,836.678,0.000,0.000,0
1508373968.546,854.019,815.773,845.863,842.436,0.000,0.000,0
1508373968.548,859.982,815.773,843.738,848.536,0.000,0.000,0
1508373968.550,862.312,813.923,843.121,838.597,0.000,0.000,0
1508373968.552,860.805,811.729,843.669,838.940,0.000,0.000,0
1508373968.554,842.367,812.346,843.327,839.214,0.000,0.000,0
1508373968.556,824.752,811.181,841.339,834.828,0.000,0.000,0
1508373968.558,818.241,810.701,840.585,822.285,0.000,0.000,0
1508373968.560,825.232,810.427,841.133,823.518,0.000,0.000,0
1508373968.562,833.457,811.455,839.968,839.831,0.000,0.000,0
1508373968.564,835.650,812.552,838.392,835.307,0.000,0.000,0
1508373968.566,841.270,813.100,837.912,831.675,0.000,0.000,0
1508373968.568,845.383,813.032,838.597,823.930,0.000,0.000,0
1508373968.570,849.084,812.963,839.694,826.260,0.000,0.000,0
1508373968.572,848.467,812.415,838.323,822.353,0.000,0.000,0
1508373968.574,844.081,812.894,839.214,823.724,0.000,0.000,0
1508373968.576,839.009,817.418,840.037,824.615,0.000,0.000,0
1508373968.578,832.840,817.075,842.161,827.905,0.000,0.000,0
1508373968.580,832.908,813.374,841.270,841.202,0.000,0.000,0
1508373968.582,827.699,813.237,840.859,835.924,0.000,0.000,0
1508373968.584,824.546,812.072,840.311,831.675,0.000,0.000,0
1508373968.586,835.581,813.785,840.859,830.852,0.000,0.000,0
1508373968.588,851.414,814.677,840.996,835.650,0.000,0.000,0
1508373968.590,851.552,814.745,840.379,836.541,0.000,0.000,0
1508373968.592,847.370,811.524,840.105,835.513,0.000,0.000,0
1508373968.594,848.878,810.633,842.847,848.330,0.000,0.000,0
1508373968.596,843.532,812.278,843.532,843.669,0.000,0.000,0
1508373968.598,829.550,812.963,841.750,831.949,0.000,0.000,0
1508373968.600,827.357,815.430,841.339,830.304,0.000,0.000,0
1508373968.602,838.529,817.761,843.395,839.146,0.000,0.000,0
1508373968.604,847.782,817.898,841.750,840.105,0.000,0.000,0
1508373968.606,851.757,817.350,843.052,838.049,0.000,0.000,0
1508373968.608,854.910,815.910,843.327,835.102,0.000,0.000,0
1508373968.610,859.091,815.293,842.915,841.339,0.000,0.000,0
1508373968.612,856.007,814.060,839.968,837.980,0.000,0.000,0
1508373968.614,847.919,812.689,837.980,846.685,0.000,0.000,0
1508373968.616,833.045,811.798,837.638,846.205,0.000,0.000,0
1508373968.618,824.958,810.975,840.037,836.335,0.000,0.000,0
1508373968.620,826.740,813.169,843.395,839.420,0.000,0.000,0
1508373968.622,830.852,814.677,845.246,835.239,0.000,0.000,0
1508373968.624,835.033,815.705,845.863,831.949,0.000,0.000,0
1508373968.626,845.657,816.801,847.096,834.142,0.000,0.000,0
1508373968.628,859.160,815.225,847.165,846.822,0.000,0.000,0
1508373968.630,854.910,815.842,846.342,846.205,0.000,0.000,0
1508373968.632,842.367,811.866,843.532,834.828,0.000,0.000,0
1508373968.634,834.896,812.552,844.629,826.945,0.000,0.000,0
1508373968.636,836.061,812.963,846.274,839.420,0.000,0.000,0
1508373968.638,833.936,809.810,845.451,840.105,0.000,0.000,0
1508373968.640,831.332,809.330,846.000,840.174,0.000,0.000,0
1508373968.642,828.111,807.480,845.040,839.146,0.000,0.000,0
1508373968.644,834.485,804.395,843.601,838.940,0.000,0.000,0
1508373968.646,846.137,807.068,843.875,843.052,0.000,0.000,0
1508373968.648,855.732,807.480,842.367,852.922,0.000,0.000,0
1508373968.650,850.455,808.919,842.298,846.959,0.000,0.000,0
1508373968.652,841.133,810.496,842.024,839.900,0.000,0.000,0
1508373968.654,836.610,810.496,842.024,842.024,0.000,0.000,0
1508373968.656,832.223,810.564,839.900,843.669,0.000,0.000,0
1508373968.658,826.945,811.387,839.214,835.924,0.000,0.000,0
1508373968.660,831.058,813.580,839.283,831.606,0.000,0.000,0
1508373968.662,832.634,813.237,842.024,839.009,0.000,0.000,0
1508373968.664,832.977,813.717,844.081,836.678,0.000,0.000,0
1508373968.666,833.936,814.334,843.464,832.223,0.000,0.000,0
1508373968.668,839.762,817.144,841.545,829.481,0.000,0.000,0
1508373968.670,854.704,818.309,842.298,839.831,0.000,0.000,0
1508373968.672,853.676,815.293,842.984,844.972,0.000,0.000,0
1508373968.674,845.931,814.608,844.218,849.153,0.000,0.000,0
1508373968.676,838.871,817.281,842.161,840.037,0.000,0.000,0
1508373968.678,834.142,818.241,841.476,833.183,0.000,0.000,0
1508373968.680,832.086,817.966,841.545,844.286,0.000,0.000,0
1508373968.682,830.030,815.430,842.847,837.432,0.000,0.000,0
1508373968.684,832.223,812.072,841.613,831.469,0.000,0.000,0
1508373968.686,838.186,811.729,841.270,831.675,0.000,0.000,0
1508373968.688,852.305,811.798,839.351,834.485,0.000,0.000,0
1508373968.690,860.256,812.757,838.255,835.719,0.000,0.000,0
1508373968.692,855.184,812.415,840.654,833.251,0.000,0.000,0
1508373968.694,850.181,812.278,842.847,846.000,0.000,0.000,0
1508373968.696,837.638,812.689,842.436,842.847,0.000,0.000,0
1508373968.698,825.437,811.524,839.557,830.304,0.000,0.000,0
1508373968.700,824.204,812.620,841.270,827.425,0.000,0.000,0
1508373968.702,837.638,813.785,843.121,835.307,0.000,0.000,0
1508373968.704,848.947,810.975,844.218,841.133,0.000,0.000,0
1508373968.706,852.168,812.072,845.794,844.903,0.000,0.000,0
1508373968.708,857.652,812.209,844.012,843.395,0.000,0.000,0
1508373968.710,862.998,813.169,839.351,835.581,0.000,0.000,0
1508373968.712,858.885,812.483,835.924,832.154,0.000,0.000,0
1508373968.714,856.966,814.471,837.432,846.685,0.000,0.000,0
1508373968.716,842.641,815.842,840.722,844.218,0.000,0.000,0
1508373968.718,838.940,815.705,843.669,838.940,0.000,0.000,0
1508373968.720,837.501,817.281,844.423,838.734,0.000,0.000,0
1508373968.722,829.961,820.228,843.190,838.392,0.000,0.000,0
1508373968.724,835.513,821.051,844.286,838.871,0.000,0.000,0
1508373968.726,845.863,819.611,845.520,843.327,0.000,0.000,0
1508373968.728,861.079,816.801,843.532,858.200,0.000,0.000,0
1508373968.730,867.316,817.350,843.601,861.764,0.000,0.000,0
1508373968.732,856.966,815.636,842.915,851.894,0.000,0.000,0
1508373968.734,844.560,812.963,845.040,841.407,0.000,0.000,0
1508373968.736,843.806,812.620,845.657,844.012,0.000,0.000,0
1508373968.738,836.541,813.032,844.560,840.448,0.000,0.000,0
1508373968.740,833.320,813.443,844.766,838.186,0.000,0.000,0
1508373968.742,833.799,812.826,844.697,838.323,0.000,0.000,0
1508373968.744,837.021,813.854,843.669,837.706,0.000,0.000,0
1508373968.746,853.402,814.745,844.492,848.810,0.000,0.000,0
1508373968.748,860.188,813.785,844.149,845.040,0.000,0.000,0
1508373968.750,859.160,812.278,841.407,838.734,0.000,0.000,0
1508373968.752,848.124,812.209,842.367,838.117,0.000,0.000,0
1508373968.754,848.536,811.592,844.972,845.588,0.000,0.000,0
1508373968.756,834.416,808.508,845.177,841.750,0.000,0.000,0
1508373968.758,822.696,806.657,843.806,842.915,0.000,0.000,0
1508373968.760,827.905,807.754,842.093,839.420,0.000,0.000,0
1508373968.762,840.928,811.798,842.778,853.608,0.000,0.000,0
1508373968.764,841.750,813.100,843.601,849.564,0.000,0.000,0
1508373968.766,849.153,814.677,845.520,842.230,0.000,0.000,0
1508373968.768,854.362,812.689,845.040,834.965,0.000,0.000,0
1508373968.770,857.309,814.402,845.383,836.541,0.000,0.000,0
1508373968.772,848.673,813.511,843.875,837.158,0.000,0.000,0
1508373968.774,838.323,811.935,841.545,836.404,0.000,0.000,0
1508373968.776,834.142,812.278,843.052,836.473,0.000,0.000,0
1508373968.778,832.360,815.499,844.697,834.828,0.000,0.000,0
1508373968.780,839.009,817.144,844.492,843.738,0.000,0.000,0
1508373968.782,839.077,817.418,843.532,839.077,0.000,0.000,0
1508373968.784,840.311,815.156,842.984,832.497,0.000,0.000,0
1508373968.786,842.161,815.088,845.246,835.719,0.000,0.000,0
1508373968.788,850.660,814.608,844.286,838.597,0.000,0.000,0
1508373968.790,853.128,815.979,845.109,842.093,0.000,0.000,0
1508373968.792,849.358,817.007,844.492,849.701,0.000,0.000,0
1508373968.794,846.617,813.648,845.863,862.518,0.000,0.000,0
1508373968.796,839.146,810.427,845.383,848.947,0.000,0.000,0
1508373968.798,829.413,809.947,842.024,833.457,0.000,0.000,0
1508373968.800,823.724,812.757,842.504,821.325,0.000,0.000,0
1508373968.802,830.235,813.717,845.451,827.494,0.000,0.000,0
1508373968.804,841.065,813.306,845.383,831.606,0.000,0.000,0
1508373968.806,849.358,812.963,844.149,830.647,0.000,0.000,0
1508373968.808,852.580,811.044,844.355,830.372,0.000,0.000,0
1508373968.810,852.717,810.427,844.560,835.307,0.000,0.000,0
1508373968.812,850.386,810.975,844.560,839.283,0.000,0.000,0
1508373968.814,854.088,812.689,846.000,849.221,0.000,0.000,0
1508373968.816,845.931,812.141,847.302,843.052,0.000,0.000,0
1508373968.818,834.211,809.947,846.822,843.532,0.000,0.000,0
1508373968.820,829.481,811.661,846.274,840.242,0.000,0.000,0
1508373968.822,837.158,812.552,846.000,836.678,0.000,0.000,0
1508373968.824,842.161,811.524,843.395,833.457,0.000,0.000,0
1508373968.826,847.782,813.854,843.738,836.061,0.000,0.000,0
1508373968.828,858.337,816.527,844.218,846.137,0.000,0.000,0
1508373968.830,856.829,816.596,847.302,841.682,0.000,0.000,0
1508373968.832,857.446,813.100,845.863,851.346,0.000,0.000,0
1508373968.834,848.262,812.209,845.040,841.476,0.000,0.000,0
1508373968.836,838.871,814.471,846.822,839.420,0.000,0.000,0
1508373968.838,832.771,814.334,846.617,837.501,0.000,0.000,0
1508373968.840,833.114,814.539,847.302,831.812,0.000,0.000,0
1508373968.842,834.759,813.169,847.096,834.965,0.000,0.000,0
1508373968.844,838.392,813.923,847.165,837.089,0.000,0.000,0
1508373968.846,851.620,813.169,849.906,855.595,0.000,0.000,0
1508373968.848,859.708,812.963,848.467,850.798,0.000,0.000,0
1508373968.850,869.852,813.032,847.439,848.741,0.000,0.000,0
1508373968.852,858.200,815.225,847.919,844.697,0.000,0.000,0
1508373968.854,838.666,816.321,847.713,848.399,0.000,0.000,0
1508373968.856,825.300,815.979,846.205,844.834,0.000,0.000,0
1508373968.858,828.453,814.745,847.302,841.202,0.000,0.000,0
1508373968.860,838.255,816.733,847.576,849.564,0.000,0.000,0
1508373968.862,846.685,815.156,848.947,864.163,0.000,0.000,0
1508373968.864,844.081,813.032,850.935,853.402,0.000,0.000,0
1508373968.866,840.105,810.770,850.455,834.553,0.000,0.000,0
1508373968.868,849.290,809.947,850.318,829.413,0.000,0.000,0
1508373968.870,858.131,810.358,847.713,836.130,0.000,0.000,0
1508373968.872,849.701,811.044,844.697,834.622,0.000,0.000,0
1508373968.874,849.153,810.496,847.850,834.896,0.000,0.000,0
1508373968.876,844.834,811.729,850.523,833.525,0.000,0.000,0
1508373968.878,839.009,814.402,850.866,833.457,0.000,0.000,0
1508373968.880,841.956,816.801,849.358,843.875,0.000,0.000,0
1508373968.882,838.392,819.200,847.302,838.117,0.000,0.000,0
1508373968.884,835.719,818.720,845.726,831.126,0.000,0.000,0
1508373968.886,842.847,818.652,846.137,832.703,0.000,0.000,0
1508373968.888,851.072,816.527,845.588,836.541,0.000,0.000,0
1508373968.890,850.523,814.608,846.205,834.828,0.000,0.000,0
1508373968.892,849.016,814.265,846.274,834.759,0.000,0.000,0
1508373968.894,853.745,816.116,845.657,846.411,0.000,0.000,0
1508373968.896,845.931,815.979,848.330,846.274,0.000,0.000,0
1508373968.898,825.986,811.661,848.878,837.021,0.000,0.000,0
1508373968.900,813.374,811.866,848.878,826.260,0.000,0.000,0
1508373968.902,822.833,812.689,849.838,828.864,0.000,0.000,0
1508373968.904,837.775,815.773,849.084,832.154,0.000,0.000,0
1508373968.906,846.891,814.197,846.959,834.896,0.000,0.000,0
1508373968.908,854.773,813.100,846.411,832.566,0.000,0.000,0
1508373968.910,852.580,811.798,845.794,832.703,0.000,0.000,0
1508373968.912,851.757,811.112,844.218,828.111,0.000,0.000,0
1508373968.914,851.826,811.592,843.875,840.448,0.000,0.000,0
1508373968.916,840.585,812.620,844.697,834.759,0.000,0.000,0
1508373968.918,829.824,809.467,843.052,827.836,0.000,0.000,0
1508373968.920,828.522,806.931,843.943,827.973,0.000,0.000,0
1508373968.922,829.550,805.766,847.028,833.457,0.000,0.000,0
1508373968.924,838.392,807.685,846.754,842.367,0.000,0.000,0
1508373968.926,844.149,809.742,848.056,842.847,0.000,0.000,0
1508373968.928,847.370,812.757,847.165,846.068,0.000,0.000,0
1508373968.930,844.560,814.265,846.822,840.722,0.000,0.000,0
1508373968.932,843.258,812.689,844.012,831.538,0.000,0.000,0
1508373968.934,838.117,812.894,844.355,831.263,0.000,0.000,0
1508373968.936,836.747,813.032,846.000,839.146,0.000,0.000,0
1508373968.938,835.719,814.677,846.891,835.650,0.000,0.000,0
1508373968.940,837.295,816.253,845.657,828.590,0.000,0.000,0
1508373968.942,836.198,813.785,843.943,823.724,0.000,0.000,0
1508373968.944,840.105,812.278,845.451,826.603,0.000,0.000,0
1508373968.946,843.464,813.306,846.959,832.360,0.000,0.000,0
1508373968.948,852.100,812.689,846.822,840.722,0.000,0.000,0
1508373968.950,857.926,815.019,847.645,840.996,0.000,0.000,0
1508373968.952,856.075,813.443,847.713,840.722,0.000,0.000,0
1508373968.954,852.580,814.471,849.016,837.021,0.000,0.000,0
1508373968.956,842.093,816.184,849.290,829.755,0.000,0.000,0
1508373968.958,835.650,817.692,847.713,831.469,0.000,0.000,0
1508373968.960,838.666,816.596,847.302,842.573,0.000,0.000,0
1508373968.962,834.690,814.814,846.479,836.473,0.000,0.000,0
1508373968.964,836.198,815.499,846.205,830.167,0.000,0.000,0
1508373968.966,834.690,813.648,846.068,819.406,0.000,0.000,0
1508373968.968,847.713,812.552,847.439,830.167,0.000,0.000,0
1508373968.970,860.256,811.112,847.645,837.638,0.000,0.000,0
1508373968.972,862.038,814.197,849.495,840.311,0.000,0.000,0
1508373968.974,851.689,815.842,850.318,845.246,0.000,0.000,0
1508373968.976,835.787,814.677,848.604,841.407,0.000,0.000,0
1508373968.978,832.360,813.511,847.370,834.485,0.000,0.000,0
1508373968.980,845.451,813.923,848.673,850.249,0.000,0.000,0
1508373968.982,843.875,814.539,848.124,843.943,0.000,0.000,0
1508373968.984,846.137,813.648,847.096,836.198,0.000,0.000,0
1508373968.986,845.794,811.318,845.863,831.812,0.000,0.000,0
1508373968.988,845.040,812.483,845.931,833.868,0.000,0.000,0
1508373968.990,849.427,809.536,846.548,833.320,0.000,0.000,0
1508373968.992,851.757,810.221,844.903,834.416,0.000,0.000,0
1508373968.994,851.072,814.402,842.984,845.177,0.000,0.000,0
1508373968.996,839.968,816.459,844.286,841.270,0.000,0.000,0
1508373968.998,830.989,812.826,846.000,837.775,0.000,0.000,0
1508373969.000,826.603,813.648,847.782,833.251,0.000,0.000,0
1508373969.002,833.457,814.060,845.726,837.158,0.000,0.000,0
1508373969.004,840.654,814.334,844.972,838.392,0.000,0.000,0
1508373969.006,844.081,814.265,843.738,836.541,0.000,0.000,0
1508373969.008,851.346,814.265,843.875,834.759,0.000,0.000,0
1508373969.010,852.991,813.854,842.984,836.404,0.000,0.000,0
1508373969.012,853.265,813.237,841.956,836.335,0.000,0.000,0
1508373969.014,854.088,810.221,840.791,843.738,0.000,0.000,0
1508373969.016,840.037,807.754,840.859,836.610,0.000,0.000,0
1508373969.018,828.522,809.879,841.682,830.030,0.000,0.000,0
1508373969.020,830.784,812.894,844.012,825.437,0.000,0.000,0
1508373969.022,835.650,813.648,843.121,831.880,0.000,0.000,0
1508373969.024,840.379,812.963,841.065,839.009,0.000,0.000,0
1508373969.026,847.370,813.580,842.367,842.093,0.000,0.000,0
1508373969.028,858.543,815.430,842.573,848.056,0.000,0.000,0
1508373969.030,858.748,817.418,840.996,840.996,0.000,0.000,0
1508373969.032,848.536,812.483,838.255,828.590,0.000,0.000,0
1508373969.034,845.177,810.016,840.242,822.627,0.000,0.000,0
1508373969.036,840.448,813.580,843.943,825.437,0.000,0.000,0
1508373969.038,828.179,811.592,843.395,825.232,0.000,0.000,0
1508373969.040,823.244,811.455,841.339,825.575,0.000,0.000,0
1508373969.042,828.522,812.826,841.270,830.098,0.000,0.000,0
1508373969.044,841.750,815.225,843.190,836.678,0.000,0.000,0
1508373969.046,857.446,814.677,845.314,847.919,0.000,0.000,0
1508373969.048,854.841,813.169,844.972,847.028,0.000,0.000,0
1508373969.050,851.689,812.689,842.984,837.295,0.000,0.000,0
1508373969.052,844.560,814.402,842.298,834.005,0.000,0.000,0
1508373969.054,837.980,815.293,842.710,833.936,0.000,0.000,0
1508373969.056,834.759,815.773,844.218,833.936,0.000,0.000,0
1508373969.058,832.017,817.898,844.972,831.949,0.000,0.000,0
1508373969.060,839.351,819.132,846.411,839.968,0.000,0.000,0
1508373969.062,841.270,816.321,847.370,836.473,0.000,0.000,0
1508373969.064,845.726,814.402,847.576,834.348,0.000,0.000,0
1508373969.066,847.919,814.951,843.806,835.650,0.000,0.000,0
1508373969.068,852.717,813.169,841.682,836.404,0.000,0.000,0
1508373969.070,852.785,810.221,841.545,829.824,0.000,0.000,0
1508373969.072,855.390,807.000,841.750,829.002,0.000,0.000,0
1508373969.074,853.950,806.520,840.791,828.933,0.000,0.000,0
1508373969.076,852.648,808.508,842.298,833.594,0.000,0.000,0
1508373969.078,849.975,813.991,844.492,845.109,0.000,0.000,1
1508373969.080,837.912,816.870,845.451,850.523,0.000,0.000,0
1508373969.082,828.933,816.938,848.056,848.193,0.000,0.000,0
1508373969.084,830.852,814.197,846.000,838.255,0.000,0.000,0
1508373969.086,839.214,814.265,846.411,842.230,0.000,0.000,0
1508373969.088,848.262,814.334,847.439,845.383,0.000,0.000,0
1508373969.090,858.337,813.580,846.822,844.286,0.000,0.000,0
1508373969.092,861.010,812.826,844.012,842.710,0.000,0.000,0
1508373969.094,865.328,814.882,843.601,853.813,0.000,0.000,0
1508373969.096,849.084,815.430,843.052,846.754,0.000,0.000,0
1508373969.098,830.441,812.278,841.202,833.457,0.000,0.000,0
1508373969.100,822.901,813.306,843.806,823.792,0.000,0.000,0
1508373969.102,837.501,815.705,845.246,840.859,0.000,0.000,0
1508373969.104,843.532,816.253,843.875,844.560,0.000,0.000,0
1508373969.106,848.262,816.116,842.230,841.270,0.000,0.000,0
1508373969.108,848.673,814.197,842.093,840.174,0.000,0.000,0
1508373969.110,851.003,811.524,842.573,836.610,0.000,0.000,0
1508373969.112,855.732,809.947,843.052,840.379,0.000,0.000,0
1508373969.114,857.857,807.617,843.464,855.116,0.000,0.000,0
1508373969.116,842.847,806.452,844.697,850.729,0.000,0.000,0
1508373969.118,830.852,807.343,842.024,828.385,0.000,0.000,0
1508373969.120,826.808,805.492,840.722,818.446,0.000,0.000,0
1508373969.122,831.469,804.532,840.654,821.531,0.000,0.000,0
1508373969.124,841.202,810.975,843.190,826.466,0.000,0.000,0
1508373969.126,845.314,812.963,842.778,830.030,0.000,0.000,0
1508373969.128,854.019,812.415,843.806,845.451,0.000,0.000,0
1508373969.130,858.200,813.923,845.931,845.726,0.000,0.000,0
1508373969.132,846.548,812.689,843.121,835.993,0.000,0.000,0
1508373969.134,834.965,814.882,842.573,829.481,0.000,0.000,0
1508373969.136,835.033,815.362,843.052,836.267,0.000,0.000,0
1508373969.138,834.622,815.842,843.875,838.117,0.000,0.000,0
1508373969.140,837.912,815.362,843.738,836.678,0.000,0.000,0
1508373969.142,839.283,815.499,843.669,837.432,0.000,0.000,0
1508373969.144,839.283,814.128,844.355,839.214,0.000,0.000,0
1508373969.146,847.096,814.608,845.246,843.738,0.000,0.000,0
1508373969.148,850.592,813.923,843.395,839.625,0.000,0.000,0
1508373969.150,855.801,813.923,844.355,844.355,0.000,0.000,0
1508373969.152,861.901,814.128,846.617,851.620,0.000,0.000,0
1508373969.154,844.834,812.415,844.286,834.622,0.000,0.000,0
1508373969.156,832.908,810.770,842.093,828.453,0.000,0.000,0
1508373969.158,832.017,812.483,843.943,835.650,0.000,0.000,0
1508373969.160,829.139,810.838,842.778,825.712,0.000,0.000,0
1508373969.162,835.513,813.032,841.887,828.316,0.000,0.000,0
1508373969.164,837.569,809.947,839.762,830.030,0.000,0.000,0
1508373969.166,844.629,809.125,839.968,829.070,0.000,0.000,0
1508373969.168,854.019,812.209,843.395,821.736,0.000,0.000,0
1508373969.170,863.478,812.003,842.504,827.768,0.000,0.000,0
1508373969.172,855.458,806.109,838.597,828.111,0.000,0.000,0
1508373969.174,845.246,805.492,838.666,835.239,0.000,0.000,0
1508373969.176,838.940,808.439,842.230,844.492,0.000,0.000,0
1508373969.178,835.102,814.334,847.645,845.863,0.000,0.000,0
1508373969.180,838.871,815.705,847.096,849.701,0.000,0.000,0
1508373969.182,838.803,816.596,845.588,840.722,0.000,0.000,0
1508373969.184,837.158,817.487,843.601,829.070,0.000,0.000,0
1508373969.186,851.963,817.007,844.149,833.662,0.000,0.000,0
1508373969.188,854.225,814.471,840.379,831.606,0.000,0.000,0
1508373969.190,851.483,812.826,837.706,830.304,0.000,0.000,0
1508373969.192,851.483,815.293,839.009,834.485,0.000,0.000,0
1508373969.194,852.443,812.141,839.900,848.056,0.000,0.000,0
1508373969.196,844.629,811.044,842.093,844.012,0.000,0.000,0
1508373969.198,838.255,812.552,839.488,831.949,0.000,0.000,0
1508373969.200,827.973,813.717,840.105,821.051,0.000,0.000,0
1508373969.202,832.497,816.184,842.367,832.566,0.000,0.000,0
1508373969.204,837.912,813.580,841.750,836.335,0.000,0.000,0
1508373969.206,845.520,810.427,840.174,834.690,0.000,0.000,0
1508373969.208,845.246,811.592,839.488,840.037,0.000,0.000,0
1508373969.210,844.560,810.153,839.077,846.548,0.000,0.000,0
1508373969.212,853.950,807.343,841.545,851.620,0.000,0.000,0
1508373969.214,849.427,808.919,843.190,836.335,0.000,0.000,0
1508373969.216,832.566,809.673,840.791,819.749,0.000,0.000,0
1508373969.218,825.163,809.330,841.065,814.197,0.000,0.000,0
1508373969.220,830.304,808.713,840.585,822.353,0.000,0.000,0
1508373969.222,831.332,808.439,841.819,823.176,0.000,0.000,0
1508373969.224,834.828,808.165,841.887,824.889,0.000,0.000,0
1508373969.226,838.117,806.520,841.202,827.082,0.000,0.000,0
1508373969.228,847.782,805.561,841.750,833.936,0.000,0.000,0
1508373969.230,850.935,805.424,839.009,835.239,0.000,0.000,0
1508373969.232,845.863,808.302,839.557,834.485,0.000,0.000,0
1508373969.234,832.634,808.713,838.871,822.764,0.000,0.000,0
1508373969.236,832.017,808.097,840.379,829.344,0.000,0.000,0
1508373969.238,826.945,808.165,840.791,829.824,0.000,0.000,0
1508373969.240,825.575,810.153,841.270,827.562,0.000,0.000,0
1508373969.242,825.437,811.181,842.161,830.441,0.000,0.000,0
1508373969.244,825.163,809.742,843.943,834.074,0.000,0.000,0
1508373969.246,837.158,808.234,842.093,846.411,0.000,0.000,0
1508373969.248,837.980,806.657,839.077,834.279,0.000,0.000,0
1508373969.250,835.650,805.698,839.283,821.256,0.000,0.000,0
1508373969.252,844.081,810.084,843.121,829.207,0.000,0.000,0
1508373969.254,842.230,813.100,842.778,835.033,0.000,0.000,0
1508373969.256,831.195,813.443,844.286,838.255,0.000,0.000,0
1508373969.258,829.002,809.810,843.190,832.840,0.000,0.000,0
1508373969.260,828.111,810.770,842.230,833.457,0.000,0.000,0
1508373969.262,833.662,811.524,842.230,847.987,0.000,0.000,0
1508373969.264,837.501,813.237,842.710,848.262,0.000,0.000,0
1508373969.266,835.787,811.866,841.956,838.734,0.000,0.000,0
1508373969.268,844.903,812.620,844.629,836.130,0.000,0.000,0
1508373969.270,861.010,811.318,844.218,833.525,0.000,0.000,0
1508373969.272,857.035,809.125,843.806,833.936,0.000,0.000,0
1508373969.274,846.617,807.548,843.601,838.597,0.000,0.000,0
1508373969.276,838.460,808.165,842.161,840.516,0.000,0.000,0
1508373969.278,834.553,811.318,843.258,846.205,0.000,0.000,0
1508373969.280,833.594,813.580,843.258,848.536,0.000,0.000,0
1508373969.282,835.856,812.963,844.766,843.943,0.000,0.000,0
1508373969.284,835.924,812.894,845.726,823.176,0.000,0.000,0
1508373969.286,850.044,813.785,846.137,831.812,0.000,0.000,0
1508373969.288,860.873,812.552,845.588,838.734,0.000,0.000,0
1508373969.290,856.075,811.455,846.342,845.451,0.000,0.000,0
1508373969.292,850.181,812.209,845.863,845.109,0.000,0.000,0
1508373969.294,846.891,813.032,845.520,849.701,0.000,0.000,0
1508373969.296,843.669,815.019,846.685,856.898,0.000,0.000,0
1508373969.298,836.335,815.568,847.233,846.274,0.000,0.000,0
1508373969.300,833.594,818.035,846.548,834.759,0.000,0.000,0
1508373969.302,837.980,819.817,844.423,833.799,0.000,0.000,0
1508373969.304,844.697,817.487,844.286,838.871,0.000,0.000,0
1508373969.306,851.757,815.979,845.040,839.900,0.000,0.000,0
1508373969.308,858.817,815.568,845.177,842.024,0.000,0.000,0
1508373969.310,867.110,813.580,845.863,851.346,0.000,0.000,0
1508373969.312,857.857,812.894,844.697,845.588,0.000,0.000,0
1508373969.314,853.950,812.963,843.121,842.093,0.000,0.000,0
1508373969.316,846.754,818.515,844.834,833.662,0.000,0.000,0
1508373969.318,839.009,821.188,847.850,838.803,0.000,0.000,0
1508373969.320,829.139,820.160,846.959,847.233,0.000,0.000,0
1508373969.322,829.893,816.321,845.040,849.769,0.000,0.000,0
1508373969.324,835.239,809.673,843.464,844.286,0.000,0.000,0
1508373969.326,842.984,806.383,842.710,839.009,0.000,0.000,0
1508373969.328,848.467,808.097,840.105,834.690,0.000,0.000,0
1508373969.330,849.632,808.851,839.077,832.634,0.000,0.000,0
1508373969.332,856.486,809.810,843.875,850.386,0.000,0.000,0
1508373969.334,849.564,808.234,843.464,845.246,0.000,0.000,0
1508373969.336,835.307,810.838,843.601,835.581,0.000,0.000,0
1508373969.338,829.824,814.951,845.794,831.880,0.000,0.000,0
1508373969.340,831.606,817.624,845.451,830.372,0.000,0.000,0
1508373969.342,834.211,819.611,845.177,833.731,0.000,0.000,0
1508373969.344,838.529,818.241,845.246,847.508,0.000,0.000,0
1508373969.346,839.900,819.269,845.520,835.170,0.000,0.000,0
1508373969.348,844.286,813.923,842.436,823.176,0.000,0.000,0
1508373969.350,850.455,811.455,843.258,822.901,0.000,0.000,0
1508373969.352,853.402,808.988,844.697,828.179,0.000,0.000,0
1508373969.354,844.697,809.125,843.806,831.743,0.000,0.000,0
1508373969.356,837.775,811.866,842.504,830.715,0.000,0.000,0
1508373969.358,834.896,814.334,840.928,832.497,0.000,0.000,0
1508373969.360,832.566,817.555,840.928,832.360,0.000,0.000,0
1508373969.362,831.058,817.555,841.750,845.588,0.000,0.000,0
1508373969.364,826.534,817.624,841.270,839.146,0.000,0.000,0
1508373969.366,828.316,817.213,839.968,829.070,0.000,0.000,0
1508373969.368,841.202,818.309,842.230,832.566,0.000,0.000,0
1508373969.370,852.100,816.116,843.190,842.710,0.000,0.000,0
1508373969.372,849.975,813.511,842.573,844.149,0.000,0.000,0
1508373969.374,843.464,812.346,842.573,843.943,0.000,0.000,0
1508373969.376,836.884,813.580,843.532,837.021,0.000,0.000,0
1508373969.378,842.778,815.362,842.367,843.464,0.000,0.000,0
1508373969.380,840.105,816.116,843.601,841.202,0.000,0.000,0
1508373969.382,831.400,815.773,841.682,834.896,0.000,0.000,0
1508373969.384,828.316,814.745,840.996,828.727,0.000,0.000,0
1508373969.386,834.348,811.318,838.734,835.239,0.000,0.000,0
1508373969.388,842.298,811.387,840.516,836.747,0.000,0.000,0
1508373969.390,850.798,813.923,843.806,842.024,0.000,0.000,0
1508373969.392,852.374,816.664,845.588,847.302,0.000,0.000,0
1508373969.394,852.100,815.636,846.342,839.214,0.000,0.000,0
1508373969.396,844.629,811.387,846.274,839.351,0.000,0.000,0
1508373969.398,837.706,808.919,847.713,855.321,0.000,0.000,0
1508373969.400,833.662,812.552,846.822,847.439,0.000,0.000,0
1508373969.402,829.276,815.705,843.806,839.968,0.000,0.000,0
1508373969.404,831.880,817.761,844.149,840.516,0.000,0.000,0
1508373969.406,840.996,818.652,844.149,839.557,0.000,0.000,0
1508373969.408,849.906,819.406,844.012,841.339,0.000,0.000,0
1508373969.410,859.365,814.951,847.028,851.552,0.000,0.000,0
1508373969.412,861.558,810.016,846.548,847.645,0.000,0.000,0
1508373969.414,859.982,809.810,846.274,842.298,0.000,0.000,0
1508373969.416,849.769,813.306,844.012,834.074,0.000,0.000,0
1508373969.418,844.218,815.773,845.383,839.077,0.000,0.000,0
1508373969.420,839.694,818.172,846.822,842.915,0.000,0.000,0
1508373969.422,839.694,819.269,849.016,845.657,0.000,0.000,0
1508373969.424,841.887,816.184,848.536,844.081,0.000,0.000,0
1508373969.426,844.697,815.568,848.947,845.931,0.000,0.000,0
1508373969.428,852.168,815.156,848.262,847.233,0.000,0.000,0
1508373969.430,863.889,812.072,846.754,854.019,0.000,0.000,0
1508373969.432,857.309,812.072,845.520,847.508,0.000,0.000,0
1508373969.434,844.492,814.814,844.081,835.376,0.000,0.000,0
1508373969.436,837.775,818.515,846.891,838.392,0.000,0.000,0
1508373969.438,831.195,817.213,845.657,836.404,0.000,0.000,0
1508373969.440,828.453,813.648,844.834,836.061,0.000,0.000,0
1508373969.442,831.400,811.044,846.548,834.759,0.000,0.000,0
1508373969.444,841.956,811.318,846.548,845.931,0.000,0.000,0
1508373969.446,845.314,812.963,846.822,844.492,0.000,0.000,0
1508373969.448,844.218,811.387,844.012,843.052,0.000,0.000,0
1508373969.450,848.947,813.854,846.205,838.871,0.000,0.000,0
1508373969.452,858.748,811.455,846.274,845.383,0.000,0.000,0
1508373969.454,854.088,811.592,845.863,846.342,0.000,0.000,0
1508373969.456,841.407,816.047,846.411,846.891,0.000,0.000,0
1508373969.458,834.416,817.966,846.205,842.710,0.000,0.000,0
1508373969.460,838.803,817.898,847.919,840.722,0.000,0.000,0
1508373969.462,847.919,817.281,848.673,843.395,0.000,0.000,0
1508373969.464,853.539,814.265,846.411,847.439,0.000,0.000,0
1508373969.466,852.443,814.882,844.766,839.900,0.000,0.000,0
1508373969.468,846.068,816.184,844.355,834.965,0.000,0.000,0
1508373969.470,855.595,814.814,842.847,835.719,0.000,0.000,0
1508373969.472,858.954,813.785,842.093,837.158,0.000,0.000,0
1508373969.474,850.386,814.539,843.327,840.037,0.000,0.000,0
1508373969.476,848.193,816.116,846.411,848.262,0.000,0.000,0
1508373969.478,833.868,815.156,845.314,835.581,0.000,0.000,0
1508373969.480,828.864,814.882,843.806,837.980,0.000,0.000,0
1508373969.482,823.998,814.265,842.710,826.466,0.000,0.000,0
1508373969.484,837.638,811.798,843.464,828.864,0.000,0.000,0
1508373969.486,850.660,807.068,841.202,837.912,0.000,0.000,0
1508373969.488,845.726,805.903,838.392,839.968,0.000,0.000,0
1508373969.490,845.863,804.532,837.432,837.569,0.000,0.000,0
1508373969.492,846.411,804.532,838.529,836.541,0.000,0.000,0
1508373969.494,844.286,806.931,841.887,837.569,0.000,0.000,0
1508373969.496,839.351,813.443,844.629,838.460,0.000,0.000,0
1508373969.498,838.734,818.104,846.754,852.031,0.000,0.000,0
1508373969.500,834.759,818.378,847.439,848.262,0.000,0.000,0
1508373969.502,827.631,817.007,845.040,837.706,0.000,0.000,0
1508373969.504,831.058,814.951,845.657,834.279,0.000,0.000,0
1508373969.506,838.460,811.318,845.726,836.335,0.000,0.000,0
1508373969.508,853.334,813.717,845.109,842.093,0.000,0.000,0
1508373969.510,857.926,815.842,843.395,840.174,0.000,0.000,0
1508373969.512,851.689,815.705,842.847,839.488,0.000,0.000,0
1508373969.514,832.840,811.661,842.161,828.933,0.000,0.000,0
1508373969.516,825.780,812.209,841.887,828.385,0.000,0.000,0
1508373969.518,823.792,813.991,840.379,831.675,0.000,0.000,0
1508373969.520,824.478,816.459,839.488,832.771,0.000,0.000,0
1508373969.522,827.494,818.446,841.682,837.089,0.000,0.000,0
1508373969.524,837.021,815.088,842.915,837.158,0.000,0.000,0
1508373969.526,846.068,810.975,843.738,835.856,0.000,0.000,0
1508373969.528,854.499,812.894,843.327,834.896,0.000,0.000,0
1508373969.530,862.312,813.443,843.258,838.392,0.000,0.000,0
1508373969.532,869.852,809.056,844.355,857.515,0.000,0.000,0
1508373969.534,854.567,805.561,841.407,848.262,0.000,0.000,0
1508373969.536,837.226,806.246,840.105,842.573,0.000,0.000,0
1508373969.538,830.921,809.673,841.545,837.226,0.000,0.000,0
1508373969.540,829.070,812.415,841.956,836.473,0.000,0.000,0
1508373969.542,834.485,813.443,841.202,844.081,0.000,0.000,0
1508373969.544,841.133,813.032,843.190,847.919,0.000,0.000,0
1508373969.546,842.161,813.237,843.258,838.049,0.000,0.000,0
1508373969.548,842.093,812.826,842.367,832.017,0.000,0.000,0
1508373969.550,837.843,813.923,840.311,823.998,0.000,0.000,0
1508373969.552,844.286,815.979,840.037,834.142,0.000,0.000,0
1508373969.554,843.258,816.184,839.831,837.089,0.000,0.000,0
1508373969.556,835.444,815.705,842.641,835.787,0.000,0.000,0
1508373969.558,829.002,816.047,843.669,835.650,0.000,0.000,0
1508373969.560,828.522,813.169,843.669,835.650,0.000,0.000,0
1508373969.562,830.921,813.100,844.012,837.501,0.000,0.000,0
1508373969.564,844.972,814.539,846.548,854.019,0.000,0.000,0
1508373969.566,845.451,814.814,845.177,854.841,0.000,0.000,0
1508373969.568,844.972,816.253,844.286,849.701,0.000,0.000,0
1508373969.570,849.495,811.729,844.149,844.903,0.000,0.000,0
1508373969.572,857.309,808.851,844.355,848.124,0.000,0.000,0
1508373969.574,859.708,813.648,848.193,852.237,0.000,0.000,0
1508373969.576,854.088,816.459,848.878,861.079,0.000,0.000,0
1508373969.578,840.379,816.733,847.439,856.144,0.000,0.000,0
1508373969.580,840.722,816.801,846.891,853.128,0.000,0.000,0
1508373969.582,833.388,819.749,845.931,839.009,0.000,0.000,0
1508373969.584,846.000,821.462,847.302,841.407,0.000,0.000,0
1508373969.586,860.462,819.337,845.794,851.277,0.000,0.000,0
1508373969.588,859.776,817.829,844.423,847.439,0.000,0.000,0
1508373969.590,855.801,815.910,842.367,839.900,0.000,0.000,0
1508373969.592,854.019,815.842,840.037,837.638,0.000,0.000,0
1508373969.594,846.274,813.169,839.351,837.843,0.000,0.000,0
1508373969.596,847.576,812.826,841.407,852.580,0.000,0.000,0
1508373969.598,842.298,814.951,844.560,846.274,0.000,0.000,0
1508373969.600,839.557,814.814,845.109,832.566,0.000,0.000,0
1508373969.602,843.669,816.733,845.520,834.416,0.000,0.000,0
1508373969.604,842.984,819.063,841.956,840.928,0.000,0.000,0
1508373969.606,848.536,819.680,842.504,846.685,0.000,0.000,0
1508373969.608,856.898,818.104,842.093,840.791,0.000,0.000,0
1508373969.610,865.328,818.104,842.710,847.370,0.000,0.000,0
1508373969.612,857.172,815.979,840.311,843.327,0.000,0.000,0
1508373969.614,851.483,813.374,841.065,843.738,0.000,0.000,0
1508373969.616,839.351,814.677,842.504,833.457,0.000,0.000,0
1508373969.618,842.024,817.487,844.012,839.557,0.000,0.000,0
1508373969.620,839.900,815.225,845.040,846.342,0.000,0.000,0
1508373969.622,832.977,813.648,846.205,847.302,0.000,0.000,0
1508373969.624,832.840,811.729,845.520,846.411,0.000,0.000,0
1508373969.626,842.778,811.249,847.302,849.975,0.000,0.000,0
1508373969.628,857.720,811.935,847.370,864.026,0.000,0.000,0
1508373969.630,857.652,810.975,846.891,855.047,0.000,0.000,0
1508373969.632,850.523,810.975,844.972,846.685,0.000,0.000,0
1508373969.634,845.520,811.249,846.685,847.439,0.000,0.000,0
1508373969.636,845.794,814.197,847.508,845.726,0.000,0.000,0
1508373969.638,847.645,814.471,847.439,839.900,0.000,0.000,0
1508373969.640,840.105,810.838,846.479,838.117,0.000,0.000,0
1508373969.642,832.634,807.274,846.411,840.105,0.000,0.000,0
1508373969.644,833.388,809.742,845.246,841.270,0.000,0.000,0
1508373969.646,842.367,813.717,843.806,852.511,0.000,0.000,0
1508373969.648,852.305,817.144,842.641,855.321,0.000,0.000,0
1508373969.650,856.281,817.007,843.601,848.124,0.000,0.000,0
1508373969.652,850.181,818.241,841.750,839.077,0.000,0.000,0
1508373969.654,847.370,820.228,840.928,832.566,0.000,0.000,0
1508373969.656,842.847,817.418,840.448,835.033,0.000,0.000,0
1508373969.658,830.441,814.608,843.395,839.557,0.000,0.000,0
1508373969.660,830.167,812.346,844.834,847.302,0.000,0.000,0
1508373969.662,833.594,811.044,843.258,847.165,0.000,0.000,0
1508373969.664,831.949,809.810,841.613,835.444,0.000,0.000,0
1508373969.666,832.292,812.278,844.081,832.154,0.000,0.000,0
1508373969.668,853.676,813.237,845.931,851.826,0.000,0.000,0
1508373969.670,856.007,810.564,844.560,848.262,0.000,0.000,0
1508373969.672,850.044,809.330,843.052,838.117,0.000,0.000,0
1508373969.674,844.492,812.894,843.327,827.425,0.000,0.000,0
1508373969.676,829.070,813.374,845.520,827.768,0.000,0.000,0
1508373969.678,822.147,815.019,846.479,830.852,0.000,0.000,0
1508373969.680,824.546,813.032,844.218,840.379,0.000,0.000,0
1508373969.682,830.989,812.963,845.588,836.267,0.000,0.000,0
1508373969.684,835.924,811.044,846.274,831.126,0.000,0.000,0
1508373969.686,840.037,811.249,847.028,832.360,0.000,0.000,1
1508373969.688,842.984,811.798,848.193,829.413,0.000,0.000,0
1508373969.690,852.922,812.278,848.467,833.868,0.000,0.000,0
1508373969.692,855.458,811.798,847.165,840.859,0.000,0.000,0
1508373969.694,858.200,813.306,849.975,853.745,0.000,0.000,0
1508373969.696,842.641,812.072,849.290,845.657,0.000,0.000,0
1508373969.698,837.021,814.265,848.947,847.713,0.000,0.000,0
1508373969.700,831.743,817.418,848.810,842.230,0.000,0.000,0
1508373969.702,839.420,815.773,848.124,849.769,0.000,0.000,0
1508373969.704,839.900,813.580,847.919,844.697,0.000,0.000,0
1508373969.706,841.682,811.112,848.056,840.037,0.000,0.000,0
1508373969.708,846.548,812.072,849.153,840.722,0.000,0.000,0
1508373969.710,852.305,810.907,846.342,837.775,0.000,0.000,0
1508373969.712,862.998,809.604,847.233,847.987,0.000,0.000,0
1508373969.714,859.776,809.947,847.782,843.943,0.000,0.000,0
1508373969.716,834.553,812.003,845.863,835.719,0.000,0.000,0
1508373969.718,826.808,818.104,848.673,837.843,0.000,0.000,0
1508373969.720,833.045,818.995,849.153,841.956,0.000,0.000,0
1508373969.722,838.117,819.200,847.302,838.597,0.000,0.000,0
1508373969.724,843.190,817.418,846.548,837.364,0.000,0.000,0
1508373969.726,852.854,818.104,849.153,848.467,0.000,0.000,0
1508373969.728,854.430,816.870,848.193,849.838,0.000,0.000,0
1508373969.730,853.265,814.745,847.508,851.620,0.000,0.000,0
1508373969.732,854.019,813.991,846.205,850.386,0.000,0.000,0
1508373969.734,853.745,812.689,848.330,853.608,0.000,0.000,0
1508373969.736,848.124,810.427,847.439,853.471,0.000,0.000,0
1508373969.738,836.610,810.564,844.834,842.161,0.000,0.000,0
1508373969.740,828.796,811.318,842.710,837.706,0.000,0.000,0
1508373969.742,830.715,815.019,842.436,836.267,0.000,0.000,0
1508373969.744,832.154,816.390,844.903,838.460,0.000,0.000,0
1508373969.746,836.952,815.705,844.012,838.323,0.000,0.000,0
1508373969.748,843.190,816.253,843.190,832.634,0.000,0.000,0
1508373969.750,851.894,817.007,842.641,833.457,0.000,0.000,0
1508373969.752,847.439,814.745,842.641,839.625,0.000,0.000,0
1508373969.754,843.806,813.169,841.887,841.065,0.000,0.000,0
1508373969.756,835.924,813.032,840.585,835.993,0.000,0.000,0
1508373969.758,829.481,811.181,841.339,829.207,0.000,0.000,0
1508373969.760,834.896,811.387,842.915,834.142,0.000,0.000,0
1508373969.762,827.562,808.508,841.819,834.211,0.000,0.000,0
1508373969.764,831.400,807.960,840.105,834.074,0.000,0.000,0
1508373969.766,829.413,810.496,840.585,823.039,0.000,0.000,0
1508373969.768,844.355,813.032,842.093,834.142,0.000,0.000,0
1508373969.770,849.564,811.524,839.214,839.625,0.000,0.000,0
1508373969.772,847.850,814.402,841.476,839.762,0.000,0.000,0
1508373969.774,839.694,817.007,842.230,837.432,0.000,0.000,0
1508373969.776,830.235,816.116,843.601,835.856,0.000,0.000,0
1508373969.778,832.360,815.705,845.931,846.479,0.000,0.000,0
1508373969.780,828.590,814.402,845.451,838.940,0.000,0.000,0
1508373969.782,826.397,812.620,843.601,826.603,0.000,0.000,0
1508373969.784,834.211,814.951,844.834,827.973,0.000,0.000,0
1508373969.786,843.669,811.455,843.806,830.167,0.000,0.000,0
1508373969.788,846.479,810.770,843.806,830.304,0.000,0.000,0
1508373969.790,853.608,809.604,842.367,828.179,0.000,0.000,0
1508373969.792,859.776,810.770,842.298,831.263,0.000,0.000,0
1508373969.794,859.297,811.661,843.464,852.100,0.000,0.000,0
1508373969.796,844.903,809.125,843.464,856.007,0.000,0.000,0
1508373969.798,834.211,810.358,844.286,848.124,0.000,0.000,0
1508373969.800,828.796,812.483,844.560,830.372,0.000,0.000,0
1508373969.802,843.121,816.047,842.847,834.759,0.000,0.000,0
1508373969.804,847.645,813.511,840.654,834.485,0.000,0.000,0
1508373969.806,843.121,812.346,840.722,838.117,0.000,0.000,0
1508373969.808,843.806,812.963,841.339,842.161,0.000,0.000,0
1508373969.810,852.374,812.689,843.669,844.834,0.000,0.000,0
1508373969.812,862.312,810.975,840.928,854.841,0.000,0.000,0
1508373969.814,857.652,812.072,841.887,849.701,0.000,0.000,0
1508373969.816,848.604,813.580,840.105,849.016,0.000,0.000,0
1508373969.818,841.407,813.717,841.613,847.233,0.000,0.000,0
1508373969.820,842.778,813.785,843.943,842.710,0.000,0.000,0
1508373969.822,839.625,812.483,844.903,838.117,0.000,0.000,0
1508373969.824,840.379,812.757,846.411,841.476,0.000,0.000,0
1508373969.826,847.645,810.496,846.137,847.850,0.000,0.000,0
1508373969.828,855.253,811.318,844.697,848.878,0.000,0.000,0
1508373969.830,860.393,809.262,844.081,846.205,0.000,0.000,0
1508373969.832,861.079,808.988,843.121,848.124,0.000,0.000,0
1508373969.834,864.574,809.467,843.190,858.748,0.000,0.000,0
1508373969.836,846.617,808.165,844.834,842.230,0.000,0.000,0
1508373969.838,835.650,809.056,847.028,839.557,0.000,0.000,0
1508373969.840,840.585,813.100,848.604,843.806,0.000,0.000,0
1508373969.842,837.775,814.197,847.576,845.314,0.000,0.000,0
1508373969.844,834.074,815.773,848.467,842.641,0.000,0.000,0
1508373969.846,840.242,814.060,849.838,848.262,0.000,0.000,0
1508373969.848,847.782,814.197,848.467,846.754,0.000,0.000,0
1508373969.850,859.228,813.923,848.604,850.318,0.000,0.000,0
1508373969.852,860.530,810.770,849.427,845.383,0.000,0.000,0
1508373969.854,855.184,808.851,847.508,843.806,0.000,0.000,0
1508373969.856,847.233,812.003,847.028,835.650,0.000,0.000,0
1508373969.858,837.775,813.032,845.931,835.787,0.000,0.000,0
1508373969.860,840.996,815.979,848.399,846.137,0.000,0.000,0
1508373969.862,836.541,815.910,849.358,843.327,0.000,0.000,0
1508373969.864,840.037,816.253,848.330,842.915,0.000,0.000,0
1508373969.866,842.230,814.265,847.096,829.618,0.000,0.000,0
1508373969.868,858.680,812.552,846.411,833.731,0.000,0.000,0
1508373969.870,865.534,812.483,843.669,833.114,0.000,0.000,0
1508373969.872,868.070,812.757,841.202,833.114,0.000,0.000,0
1508373969.874,862.792,813.648,841.545,835.787,0.000,0.000,0
1508373969.876,850.798,813.169,840.722,838.803,0.000,0.000,0
1508373969.878,848.262,813.306,841.270,847.165,0.000,0.000,0
1508373969.880,840.105,813.717,839.351,832.223,0.000,0.000,0
1508373969.882,837.295,815.225,837.775,827.631,0.000,0.000,0
1508373969.884,838.186,816.596,839.214,826.191,0.000,0.000,0
1508373969.886,852.305,813.237,839.077,832.360,0.000,0.000,0
1508373969.888,856.281,811.729,839.077,840.448,0.000,0.000,0
1508373969.890,855.184,809.879,835.856,844.355,0.000,0.000,0
1508373969.892,851.277,809.330,834.965,833.936,0.000,0.000,0
1508373969.894,850.044,810.701,837.432,832.017,0.000,0.000,0
1508373969.896,852.580,812.003,840.311,850.386,0.000,0.000,0
1508373969.898,846.617,814.539,843.327,853.334,0.000,0.000,0
1508373969.900,837.706,814.745,841.476,844.766,0.000,0.000,0
1508373969.902,843.464,812.209,842.230,836.267,0.000,0.000,0
1508373969.904,845.588,811.318,842.093,828.111,0.000,0.000,0
1508373969.906,843.190,810.975,843.669,826.191,0.000,0.000,0
1508373969.908,850.729,811.798,840.242,825.506,0.000,0.000,0
1508373969.910,861.010,813.923,839.557,825.232,0.000,0.000,0
1508373969.912,862.518,813.717,840.448,841.407,0.000,0.000,0
1508373969.914,851.209,809.125,841.270,838.049,0.000,0.000,0
1508373969.916,840.516,806.726,840.928,833.388,0.000,0.000,0
1508373969.918,838.323,810.153,842.984,835.993,0.000,0.000,0
1508373969.920,835.650,810.770,842.915,834.142,0.000,0.000,0
1508373969.922,836.335,812.278,843.806,834.005,0.000,0.000,0
1508373969.924,838.460,812.757,843.121,834.211,0.000,0.000,0
1508373969.926,854.979,814.814,844.081,849.769,0.000,0.000,0
1508373969.928,858.131,816.664,844.012,849.358,0.000,0.000,0
1508373969.930,852.580,813.511,842.024,840.585,0.000,0.000,0
1508373969.932,849.838,812.689,843.806,838.940,0.000,0.000,0
1508373969.934,851.414,812.689,843.806,850.044,0.000,0.000,0
1508373969.936,850.592,813.443,843.121,848.262,0.000,0.000,0
1508373969.938,842.573,813.511,845.383,847.850,0.000,0.000,0
1508373969.940,839.694,815.088,846.959,844.423,0.000,0.000,0
1508373969.942,843.464,818.446,847.987,843.669,0.000,0.000,0
1508373969.944,845.246,820.777,847.850,846.342,0.000,0.000,0
1508373969.946,849.290,819.063,848.604,862.724,0.000,0.000,0
1508373969.948,851.483,817.898,849.016,860.942,0.000,0.000,0
1508373969.950,850.523,816.459,846.891,844.903,0.000,0.000,0
1508373969.952,854.430,814.471,846.137,841.545,0.000,0.000,0
1508373969.954,850.798,814.265,845.931,837.364,0.000,0.000,0
1508373969.956,844.972,815.705,845.588,839.625,0.000,0.000,0
1508373969.958,839.146,815.362,845.177,840.242,0.000,0.000,0
1508373969.960,840.928,814.951,844.423,850.044,0.000,0.000,0
1508373969.962,839.146,813.032,845.177,843.875,0.000,0.000,0
1508373969.964,837.226,812.141,844.355,832.292,0.000,0.000,0
1508373969.966,844.012,815.156,845.726,830.647,0.000,0.000,0
1508373969.968,852.785,815.773,847.508,844.972,0.000,0.000,0
1508373969.970,856.898,813.100,845.451,852.717,0.000,0.000,0
1508373969.972,859.913,811.661,843.395,847.508,0.000,0.000,0
1508373969.974,850.660,811.249,841.202,836.198,0.000,0.000,0
1508373969.976,842.641,811.798,840.105,836.335,0.000,0.000,0
1508373969.978,843.121,810.496,842.024,848.741,0.000,0.000,0
1508373969.980,836.815,807.754,840.928,840.859,0.000,0.000,0
1508373969.982,833.662,805.629,842.367,839.900,0.000,0.000,0
1508373969.984,835.924,806.726,844.218,836.747,0.000,0.000,0
1508373969.986,849.290,807.754,844.423,837.295,0.000,0.000,0
1508373969.988,850.798,809.056,842.778,837.980,0.000,0.000,0
1508373969.990,850.181,809.467,841.613,839.968,0.000,0.000,0
1508373969.992,854.362,811.935,845.177,850.249,0.000,0.000,0
1508373969.994,858.337,814.060,848.673,861.353,0.000,0.000,0
1508373969.996,843.738,813.991,848.124,854.019,0.000,0.000,0
1508373969.998,834.416,814.060,846.548,856.075,0.000,0.000,0
1508373970.000,830.989,813.785,848.536,849.290,0.000,0.000,0
1508373970.002,844.218,813.580,851.003,853.676,0.000,0.000,0
1508373970.004,855.321,813.923,851.826,857.377,0.000,0.000,0
1508373970.006,863.341,816.184,849.632,861.833,0.000,0.000,0
1508373970.008,865.465,816.527,849.427,862.929,0.000,0.000,0
1508373970.010,866.562,813.717,846.754,857.309,0.000,0.000,0
1508373970.012,868.755,812.072,841.339,866.151,0.000,0.000,0
1508373970.014,855.527,812.141,839.968,860.119,0.000,0.000,0
1508373970.016,845.383,811.044,841.065,849.016,0.000,0.000,0
1508373970.018,840.859,811.798,843.943,844.423,0.000,0.000,0
1508373970.020,840.585,814.402,844.149,837.021,0.000,0.000,0
1508373970.022,840.242,817.487,842.915,832.497,0.000,0.000,0
1508373970.024,838.255,816.390,842.436,831.126,0.000,0.000,0
1508373970.026,839.488,813.991,843.121,841.407,0.000,0.000,0
1508373970.028,839.694,811.866,843.327,837.912,0.000,0.000,0
1508373970.030,846.068,810.153,843.327,830.989,0.000,0.000,0
1508373970.032,849.016,811.524,843.327,830.441,0.000,0.000,0
1508373970.034,854.430,813.100,842.573,843.327,0.000,0.000,0
1508373970.036,845.520,812.415,841.750,847.919,0.000,0.000,0
1508373970.038,831.400,812.346,839.420,839.557,0.000,0.000,0
1508373970.040,823.792,812.346,838.460,829.344,0.000,0.000,0
1508373970.042,825.643,812.278,839.009,826.671,0.000,0.000,0
1508373970.044,830.989,811.318,840.928,828.864,0.000,0.000,0
1508373970.046,847.713,811.455,841.202,847.919,0.000,0.000,0
1508373970.048,850.592,811.935,839.762,842.847,0.000,0.000,0
1508373970.050,852.031,812.689,837.775,833.388,0.000,0.000,0
1508373970.052,856.624,813.511,837.089,826.945,0.000,0.000,0
1508373970.054,850.249,812.003,837.432,827.836,0.000,0.000,0
1508373970.056,840.722,810.564,838.734,833.594,0.000,0.000,0
1508373970.058,829.618,808.371,840.791,840.379,0.000,0.000,0
1508373970.060,833.388,808.302,840.311,845.246,0.000,0.000,0
1508373970.062,835.239,809.056,842.093,835.993,0.000,0.000,0
1508373970.064,830.578,810.838,839.762,827.151,0.000,0.000,0
1508373970.066,835.581,810.221,840.722,827.219,0.000,0.000,0
1508373970.068,847.576,807.137,842.504,840.791,0.000,0.000,0
1508373970.070,845.794,807.754,842.093,843.943,0.000,0.000,0
1508373970.072,839.488,806.040,842.298,841.476,0.000,0.000,0
1508373970.074,837.775,800.557,842.504,841.065,0.000,0.000,0
1508373970.076,837.501,802.408,842.367,839.214,0.000,0.000,0
1508373970.078,841.476,807.137,844.903,848.056,0.000,0.000,0
1508373970.080,832.634,807.822,845.040,849.632,0.000,0.000,0
1508373970.082,825.369,808.439,844.286,840.174,0.000,0.000,0
1508373970.084,829.276,809.536,844.629,833.868,0.000,0.000,0
1508373970.086,833.045,808.713,843.327,832.566,0.000,0.000,0
1508373970.088,839.077,806.589,841.065,834.348,0.000,0.000,0
1508373970.090,845.520,803.916,837.638,836.541,0.000,0.000,0
1508373970.092,853.402,805.149,838.871,857.103,0.000,0.000,0
1508373970.094,849.290,807.343,842.504,851.689,0.000,0.000,0
1508373970.096,845.520,809.262,842.847,845.726,0.000,0.000,0
1508373970.098,842.024,813.032,844.286,841.065,0.000,0.000,0
1508373970.100,834.142,815.156,842.573,836.335,0.000,0.000,0
1508373970.102,828.933,815.362,842.984,836.884,0.000,0.000,0
1508373970.104,834.142,813.032,844.697,835.033,0.000,0.000,0
1508373970.106,841.682,814.745,845.040,842.915,0.000,0.000,0
1508373970.108,851.552,816.596,843.464,849.290,0.000,0.000,0
1508373970.110,854.567,813.648,844.492,846.685,0.000,0.000,0
1508373970.112,856.829,809.604,845.657,856.486,0.000,0.000,0
1508373970.114,846.479,808.097,845.246,846.479,0.000,0.000,0
1508373970.116,833.457,807.206,842.161,836.130,0.000,0.000,0
1508373970.118,832.017,809.399,844.903,837.706,0.000,0.000,0
1508373970.120,829.755,809.947,844.012,838.666,0.000,0.000,0
1508373970.122,827.425,809.673,843.875,838.666,0.000,0.000,0
1508373970.124,833.045,812.415,844.697,838.597,0.000,0.000,0
1508373970.126,844.355,813.100,846.000,846.274,0.000,0.000,0
1508373970.128,849.975,810.633,845.109,840.516,0.000,0.000,0
1508373970.130,851.209,806.726,844.492,843.052,0.000,0.000,0
1508373970.132,842.024,806.863,843.669,831.332,0.000,0.000,0
1508373970.134,845.451,808.713,844.903,835.581,0.000,0.000,0
1508373970.136,839.146,807.822,844.834,837.638,0.000,0.000,0
1508373970.138,833.251,808.988,846.000,833.183,0.000,0.000,0
1508373970.140,830.647,810.838,845.383,832.840,0.000,0.000,0
1508373970.142,829.961,812.209,845.931,835.787,0.000,0.000,0
1508373970.144,835.787,812.072,846.137,848.056,0.000,0.000,0
1508373970.146,842.298,808.234,844.492,845.040,0.000,0.000,0
1508373970.148,845.863,804.464,842.847,838.803,0.000,0.000,0
1508373970.150,840.516,803.847,843.669,829.824,0.000,0.000,0
1508373970.152,839.146,805.972,843.601,825.575,0.000,0.000,0
1508373970.154,839.351,807.754,843.052,829.893,0.000,0.000,0
1508373970.156,842.298,808.713,845.109,835.856,0.000,0.000,0
1508373970.158,840.585,810.358,842.573,832.497,0.000,0.000,0
1508373970.160,827.219,812.689,843.738,842.230,0.000,0.000,0
1508373970.162,815.362,810.701,844.766,838.117,0.000,0.000,0
1508373970.164,821.736,809.673,845.520,835.513,0.000,0.000,0
1508373970.166,828.590,810.358,846.342,826.877,0.000,0.000,0
1508373970.168,842.367,809.947,844.972,832.634,0.000,0.000,0
1508373970.170,848.193,808.165,844.218,838.529,0.000,0.000,0
1508373970.172,854.156,809.262,843.806,839.146,0.000,0.000,0
1508373970.174,846.822,808.645,844.081,834.211,0.000,0.000,0
1508373970.176,831.812,810.496,844.218,833.457,0.000,0.000,0
1508373970.178,827.905,813.854,845.520,844.766,0.000,0.000,0
1508373970.180,821.942,814.745,845.314,841.339,0.000,0.000,0
1508373970.182,823.176,816.321,845.040,839.077,0.000,0.000,0
1508373970.184,825.780,817.555,846.822,838.597,0.000,0.000,0
1508373970.186,834.690,815.293,846.205,842.915,0.000,0.000,0
1508373970.188,839.968,809.399,846.000,837.638,0.000,0.000,0
1508373970.190,846.822,804.464,845.726,829.413,0.000,0.000,0
1508373970.192,850.249,805.081,845.451,834.142,0.000,0.000,0
1508373970.194,849.769,806.589,845.177,849.153,0.000,0.000,0
1508373970.196,838.186,807.068,842.984,839.625,0.000,0.000,0
1508373970.198,831.880,810.084,842.367,834.553,0.000,0.000,0
1508373970.200,818.104,808.851,840.242,822.285,0.000,0.000,0
1508373970.202,822.422,807.000,840.174,827.631,0.000,0.000,0
1508373970.204,832.497,808.097,840.585,828.864,0.000,0.000,0
1508373970.206,837.706,808.851,842.710,830.715,0.000,0.000,0
1508373970.208,841.270,810.564,843.464,836.473,0.000,0.000,0
1508373970.210,850.386,811.661,843.121,843.464,0.000,0.000,0
1508373970.212,852.854,808.919,840.242,846.479,0.000,0.000,0
1508373970.214,846.274,807.137,839.557,838.940,0.000,0.000,0
1508373970.216,830.989,809.330,840.311,826.945,0.000,0.000,0
1508373970.218,829.002,814.471,843.738,835.993,0.000,0.000,0
1508373970.220,830.989,815.430,843.327,843.532,0.000,0.000,0
1508373970.222,840.311,816.116,843.669,846.000,0.000,0.000,0
1508373970.224,842.504,815.293,844.149,843.669,0.000,0.000,0
1508373970.226,841.956,813.717,843.121,842.847,0.000,0.000,0
1508373970.228,850.455,810.427,842.641,849.290,0.000,0.000,0
1508373970.230,850.592,806.040,840.037,842.298,0.000,0.000,0
1508373970.232,850.660,806.520,841.202,845.040,0.000,0.000,0
1508373970.234,844.766,810.084,842.504,837.364,0.000,0.000,0
1508373970.236,838.803,809.467,840.722,832.566,0.000,0.000,0
1508373970.238,832.017,809.604,841.613,836.404,0.000,0.000,0
1508373970.240,830.509,810.358,841.270,831.400,0.000,0.000,1
1508373970.242,837.843,810.221,841.545,835.444,0.000,0.000,0
1508373970.244,835.170,808.782,839.762,826.328,0.000,0.000,0
1508373970.246,834.279,809.262,841.956,822.079,0.000,0.000,0
1508373970.248,836.610,811.866,841.682,828.179,0.000,0.000,0
1508373970.250,837.843,812.620,841.065,824.409,0.000,0.000,0
1508373970.252,842.024,811.318,838.049,827.288,0.000,0.000,0
1508373970.254,832.840,807.891,836.130,828.453,0.000,0.000,0
1508373970.256,826.397,806.520,835.307,827.219,0.000,0.000,0
1508373970.258,825.849,806.931,836.884,826.945,0.000,0.000,0
1508373970.260,825.095,808.439,839.351,825.369,0.000,0.000,0
1508373970.262,822.285,811.524,840.585,825.712,0.000,0.000,0
1508373970.264,832.908,814.334,842.504,842.367,0.000,0.000,0
1508373970.266,834.142,812.757,840.105,837.295,0.000,0.000,0
1508373970.268,841.887,811.798,837.980,837.980,0.000,0.000,0
1508373970.270,846.137,813.580,840.174,829.824,0.000,0.000,0
1508373970.272,846.822,812.689,840.654,825.712,0.000,0.000,0
1508373970.274,841.545,810.358,840.722,827.836,0.000,0.000,0
1508373970.276,838.529,809.330,841.476,838.529,0.000,0.000,0
1508373970.278,837.843,810.153,845.520,844.423,0.000,0.000,0
1508373970.280,833.388,810.221,846.068,839.146,0.000,0.000,0
1508373970.282,823.724,814.882,847.370,833.045,0.000,0.000,0
1508373970.284,831.332,817.418,848.673,842.984,0.000,0.000,0
1508373970.286,841.270,814.265,846.685,845.794,0.000,0.000,0
1508373970.288,850.318,812.894,845.931,844.629,0.000,0.000,0
1508373970.290,858.543,813.237,844.560,842.093,0.000,0.000,0
1508373970.292,856.761,812.141,843.669,838.117,0.000,0.000,0
1508373970.294,861.216,812.278,846.754,849.427,0.000,0.000,0
1508373970.296,846.754,813.100,847.645,846.000,0.000,0.000,0
1508373970.298,834.416,815.636,847.645,844.972,0.000,0.000,0
1508373970.300,828.933,818.104,845.863,833.799,0.000,0.000,0
1508373970.302,833.045,817.898,844.560,838.255,0.000,0.000,0
1508373970.304,839.762,818.104,845.451,840.516,0.000,0.000,0
1508373970.306,842.847,817.075,845.588,842.778,0.000,0.000,0
1508373970.308,844.903,817.555,843.190,843.806,0.000,0.000,0
1508373970.310,848.536,816.596,840.379,837.226,0.000,0.000,0
1508373970.312,858.954,812.209,838.803,842.984,0.000,0.000,0
1508373970.314,854.910,808.028,839.557,838.117,0.000,0.000,0
1508373970.316,841.065,807.822,841.270,827.219,0.000,0.000,0
1508373970.318,827.973,809.879,843.943,829.002,0.000,0.000,0
1508373970.320,823.107,811.387,844.903,832.908,0.000,0.000,0
1508373970.322,827.905,812.826,844.492,833.731,0.000,0.000,0
1508373970.324,832.497,813.374,845.451,834.485,0.000,0.000,0
1508373970.326,844.218,814.608,845.931,845.177,0.000,0.000,0
1508373970.328,846.822,815.430,846.068,843.806,0.000,0.000,0
1508373970.330,846.479,814.060,842.093,832.634,0.000,0.000,0
1508373970.332,847.713,812.689,841.956,823.930,0.000,0.000,0
1508373970.334,854.979,811.798,843.190,834.074,0.000,0.000,0
1508373970.336,846.274,810.084,840.859,836.473,0.000,0.000,0
1508373970.338,833.388,809.399,840.859,832.497,0.000,0.000,0
1508373970.340,829.207,810.358,840.996,830.715,0.000,0.000,0
1508373970.342,833.731,815.019,842.093,832.634,0.000,0.000,0
1508373970.344,840.174,815.019,841.476,843.121,0.000,0.000,0
1508373970.346,842.847,812.483,840.311,836.952,0.000,0.000,0
1508373970.348,838.803,812.278,838.186,827.425,0.000,0.000,0
1508373970.350,846.548,813.648,840.311,831.743,0.000,0.000,0
1508373970.352,852.717,815.979,840.242,840.105,0.000,0.000,0
1508373970.354,843.395,813.443,839.762,839.283,0.000,0.000,0
1508373970.356,836.884,812.415,839.968,835.307,0.000,0.000,0
1508373970.358,832.086,812.689,839.762,830.647,0.000,0.000,0
1508373970.360,835.033,812.072,842.367,834.416,0.000,0.000,0
1508373970.362,832.360,811.112,840.928,832.086,0.000,0.000,0
1508373970.364,831.743,808.576,839.625,834.348,0.000,0.000,0
1508373970.366,830.921,808.165,838.255,823.724,0.000,0.000,0
1508373970.368,838.117,809.467,840.037,832.154,0.000,0.000,0
1508373970.370,845.588,810.770,842.710,838.734,0.000,0.000,0
1508373970.372,848.741,812.003,844.149,839.557,0.000,0.000,0
1508373970.374,847.439,810.770,844.766,839.214,0.000,0.000,0
1508373970.376,842.024,811.044,844.423,841.956,0.000,0.000,0
1508373970.378,844.218,813.991,845.314,854.979,0.000,0.000,0
1508373970.380,835.239,815.362,845.451,847.508,0.000,0.000,0
1508373970.382,831.195,815.705,844.766,844.149,0.000,0.000,0
1508373970.384,838.803,816.596,846.411,840.105,0.000,0.000,0
1508373970.386,847.576,816.390,847.645,840.859,0.000,0.000,0
1508373970.388,844.903,817.213,847.576,840.516,0.000,0.000,0
1508373970.390,847.233,816.184,845.109,843.601,0.000,0.000,0
1508373970.392,846.959,817.487,845.726,843.532,0.000,0.000,0
1508373970.394,847.645,816.938,845.657,853.882,0.000,0.000,0
1508373970.396,849.427,817.761,845.657,849.838,0.000,0.000,0
1508373970.398,845.383,817.144,844.834,846.822,0.000,0.000,0
1508373970.400,835.719,820.503,843.875,844.149,0.000,0.000,0
1508373970.402,825.575,818.720,842.093,833.799,0.000,0.000,0
1508373970.404,823.176,813.580,841.270,818.789,0.000,0.000,0
1508373970.406,833.799,812.757,840.722,820.503,0.000,0.000,0
1508373970.408,841.682,812.757,840.379,829.344,0.000,0.000,0
1508373970.410,853.950,812.963,842.847,840.928,0.000,0.000,0
1508373970.412,850.660,809.673,840.928,834.759,0.000,0.000,0
1508373970.414,846.205,807.068,838.871,832.154,0.000,0.000,0
1508373970.416,835.924,806.657,841.133,829.481,0.000,0.000,0
1508373970.418,837.364,810.633,843.875,837.569,0.000,0.000,0
1508373970.420,837.432,813.923,846.000,835.650,0.000,0.000,0
1508373970.422,838.392,815.156,845.520,833.594,0.000,0.000,0
1508373970.424,848.262,816.047,844.629,833.799,0.000,0.000,0
1508373970.426,854.567,816.938,845.109,835.307,0.000,0.000,0
1508373970.428,848.536,815.773,844.697,849.427,0.000,0.000,0
1508373970.430,845.040,814.882,842.367,839.831,0.000,0.000,0
1508373970.432,842.161,814.334,839.968,840.311,0.000,0.000,0
1508373970.434,841.819,815.362,842.778,841.545,0.000,0.000,0
1508373970.436,846.411,815.910,845.657,841.202,0.000,0.000,0
1508373970.438,842.710,817.418,848.262,837.638,0.000,0.000,0
1508373970.440,836.130,817.761,846.068,834.142,0.000,0.000,0
1508373970.442,843.532,820.982,846.274,841.819,0.000,0.000,0
1508373970.444,840.928,821.942,845.520,831.538,0.000,0.000,0
1508373970.446,839.077,821.873,841.682,829.961,0.000,0.000,0
1508373970.448,840.791,824.204,842.984,829.893,0.000,0.000,0
1508373970.450,857.172,821.531,846.548,839.283,0.000,0.000,0
1508373970.452,867.179,814.334,846.479,840.516,0.000,0.000,0
1508373970.454,859.365,809.399,842.984,833.251,0.000,0.000,0
1508373970.456,848.262,809.604,838.940,828.179,0.000,0.000,0
1508373970.458,838.940,813.100,839.900,831.400,0.000,0.000,0
1508373970.460,837.638,814.265,841.202,829.824,0.000,0.000,0
1508373970.462,847.576,811.661,840.996,838.186,0.000,0.000,0
1508373970.464,847.028,810.427,841.065,833.251,0.000,0.000,0
1508373970.466,845.588,812.003,840.516,834.896,0.000,0.000,0
1508373970.468,852.922,815.362,841.476,840.311,0.000,0.000,0
1508373970.470,857.789,813.648,840.791,843.395,0.000,0.000,0
1508373970.472,858.611,811.112,840.037,844.149,0.000,0.000,0
1508373970.474,853.745,810.427,837.226,840.105,0.000,0.000,0
1508373970.476,853.539,810.907,837.364,847.439,0.000,0.000,0
1508373970.478,842.504,813.237,838.323,841.407,0.000,0.000,0
1508373970.480,834.211,815.019,839.557,831.675,0.000,0.000,0
1508373970.482,831.880,817.555,841.476,824.958,0.000,0.000,0
1508373970.484,840.105,817.692,840.859,835.787,0.000,0.000,0
1508373970.486,849.701,814.814,839.146,837.501,0.000,0.000,0
1508373970.488,859.091,813.374,839.625,831.538,0.000,0.000,0
1508373970.490,860.119,813.443,840.722,830.784,0.000,0.000,0
1508373970.492,857.652,812.963,841.065,833.457,0.000,0.000,0
1508373970.494,861.010,816.253,843.532,851.414,0.000,0.000,0
1508373970.496,849.153,814.882,840.174,848.056,0.000,0.000,0
1508373970.498,846.274,814.539,841.133,843.601,0.000,0.000,0
1508373970.500,837.638,813.923,842.093,832.771,0.000,0.000,0
1508373970.502,839.420,816.047,844.149,837.021,0.000,0.000,0
1508373970.504,843.806,819.132,843.532,836.198,0.000,0.000,0
1508373970.506,849.564,822.010,844.492,837.843,0.000,0.000,0
1508373970.508,853.196,821.393,845.657,836.610,0.000,0.000,0
1508373970.510,859.365,816.870,845.314,847.850,0.000,0.000,0
1508373970.512,860.325,817.281,845.520,842.710,0.000,0.000,0
1508373970.514,852.580,818.857,845.588,832.429,0.000,0.000,0
1508373970.516,850.798,819.543,846.822,837.364,0.000,0.000,0
1508373970.518,841.407,817.898,845.520,838.803,0.000,0.000,0
1508373970.520,838.460,817.624,847.233,837.089,0.000,0.000,0
1508373970.522,843.806,817.418,849.016,837.980,0.000,0.000,0
1508373970.524,844.903,817.487,847.576,837.775,0.000,0.000,0
1508373970.526,849.906,817.007,845.177,843.532,0.000,0.000,0
1508373970.528,865.739,815.910,844.218,852.717,0.000,0.000,0
1508373970.530,860.667,813.991,842.298,841.545,0.000,0.000,0
1508373970.532,851.414,811.455,839.488,837.912,0.000,0.000,0
1508373970.534,843.806,809.193,837.638,832.634,0.000,0.000,0
1508373970.536,839.283,806.040,835.102,829.413,0.000,0.000,0
1508373970.538,833.388,808.713,836.815,833.457,0.000,0.000,0
1508373970.540,838.117,813.169,841.682,839.968,0.000,0.000,0
1508373970.542,842.298,816.596,843.669,845.314,0.000,0.000,0
1508373970.544,842.710,817.761,842.778,834.416,0.000,0.000,0
1508373970.546,843.464,816.184,840.722,830.372,0.000,0.000,0
1508373970.548,841.887,817.281,843.601,827.288,0.000,0.000,0
1508373970.550,855.458,819.063,845.109,835.102,0.000,0.000,0
1508373970.552,865.945,817.213,842.573,834.485,0.000,0.000,0
1508373970.554,865.397,814.882,841.682,832.703,0.000,0.000,0
1508373970.556,856.898,815.499,843.806,833.183,0.000,0.000,0
1508373970.558,846.891,817.898,845.588,837.158,0.000,0.000,0
1508373970.560,840.516,814.334,844.492,837.775,0.000,0.000,0
1508373970.562,842.710,813.374,844.355,848.673,0.000,0.000,0
1508373970.564,838.529,813.169,842.710,842.915,0.000,0.000,0
1508373970.566,843.601,813.717,843.052,836.267,0.000,0.000,0
1508373970.568,851.757,812.894,845.657,841.545,0.000,0.000,0
1508373970.570,860.942,811.181,845.726,843.258,0.000,0.000,0
1508373970.572,860.325,807.754,843.738,839.214,0.000,0.000,0
1508373970.574,855.253,809.536,844.081,837.638,0.000,0.000,0
1508373970.576,853.059,814.334,845.931,844.286,0.000,0.000,0
1508373970.578,841.407,813.306,845.588,849.564,0.000,0.000,0
1508373970.580,833.251,811.387,846.685,847.370,0.000,0.000,0
1508373970.582,819.817,811.181,844.081,832.497,0.000,0.000,0
1508373970.584,825.986,810.907,844.218,837.843,0.000,0.000,0
1508373970.586,836.678,810.838,843.669,843.395,0.000,0.000,0
1508373970.588,847.096,814.060,840.722,844.286,0.000,0.000,0
1508373970.590,855.527,817.281,840.448,843.121,0.000,0.000,0
1508373970.592,852.785,817.350,840.722,837.980,0.000,0.000,0
1508373970.594,847.508,814.745,843.464,841.613,0.000,0.000,0
1508373970.596,833.457,812.141,842.915,836.335,0.000,0.000,0
1508373970.598,823.176,811.524,842.024,834.005,0.000,0.000,0
1508373970.600,816.527,815.225,842.230,827.357,0.000,0.000,0
1508373970.602,823.861,818.035,842.024,826.397,0.000,0.000,0
1508373970.604,834.074,816.184,844.834,831.400,0.000,0.000,0
1508373970.606,839.625,815.430,845.863,836.335,0.000,0.000,0
1508373970.608,835.650,815.088,845.177,831.880,0.000,0.000,0
1508373970.610,846.479,813.306,843.190,838.460,0.000,0.000,0
1508373970.612,855.116,815.225,844.560,839.420,0.000,0.000,0
1508373970.614,848.193,814.677,843.190,835.102,0.000,0.000,0
1508373970.616,841.545,816.801,845.040,837.706,0.000,0.000,0
1508373970.618,837.501,817.692,845.863,846.205,0.000,0.000,0
1508373970.620,827.836,816.253,845.040,841.613,0.000,0.000,0
1508373970.622,826.740,818.104,846.822,836.815,0.000,0.000,0
1508373970.624,831.400,816.870,846.068,837.295,0.000,0.000,0
1508373970.626,838.323,816.733,845.931,844.492,0.000,0.000,0
1508373970.628,851.209,817.555,843.601,857.515,0.000,0.000,0
1508373970.630,855.801,815.979,842.504,849.358,0.000,0.000,0
1508373970.632,844.560,812.141,843.121,833.731,0.000,0.000,0
1508373970.634,844.972,810.153,844.081,834.348,0.000,0.000,0
1508373970.636,838.871,810.084,843.806,835.787,0.000,0.000,0
1508373970.638,835.239,810.770,841.339,833.594,0.000,0.000,0
1508373970.640,831.469,811.044,840.448,825.917,0.000,0.000,0
1508373970.642,828.042,812.072,843.601,827.357,0.000,0.000,0
1508373970.644,832.017,811.729,846.274,841.065,0.000,0.000,0
1508373970.646,836.198,813.991,845.451,843.190,0.000,0.000,0
1508373970.648,840.311,816.047,843.464,836.747,0.000,0.000,0
1508373970.650,851.483,820.160,845.246,842.093,0.000,0.000,0
1508373970.652,855.938,818.857,845.657,852.648,0.000,0.000,0
1508373970.654,854.841,817.418,846.548,850.935,0.000,0.000,0
1508373970.656,850.592,819.337,846.685,847.028,0.000,0.000,0
1508373970.658,842.436,819.680,846.617,841.133,0.000,0.000,0
1508373970.660,837.980,818.789,846.891,851.689,0.000,0.000,0
1508373970.662,835.444,819.200,847.165,853.402,0.000,0.000,0
1508373970.664,829.002,817.624,844.766,839.420,0.000,0.000,0
1508373970.666,831.263,818.583,843.258,824.204,0.000,0.000,0
1508373970.668,840.037,817.350,843.121,829.550,0.000,0.000,0
1508373970.670,848.056,815.568,843.875,835.650,0.000,0.000,0
1508373970.672,852.648,813.443,846.068,840.654,0.000,0.000,0
1508373970.674,848.056,812.689,844.972,841.887,0.000,0.000,0
1508373970.676,844.560,812.826,846.548,850.112,0.000,0.000,0
1508373970.678,840.859,812.209,848.124,841.613,0.000,0.000,0
1508373970.680,834.005,811.661,847.302,836.610,0.000,0.000,0
1508373970.682,832.634,811.866,845.863,828.179,0.000,0.000,0
1508373970.684,842.504,812.894,846.685,832.703,0.000,0.000,0
1508373970.686,847.439,813.717,845.451,834.553,0.000,0.000,0
1508373970.688,851.689,814.402,846.754,842.641,0.000,0.000,0
1508373970.690,851.826,814.608,848.193,851.209,0.000,0.000,0
1508373970.692,852.031,813.169,847.850,846.000,0.000,0.000,0
1508373970.694,855.938,809.947,848.673,846.891,0.000,0.000,0
1508373970.696,845.931,807.754,843.464,836.267,0.000,0.000,0
1508373970.698,832.292,809.879,841.270,829.139,0.000,0.000,0
1508373970.700,830.030,812.689,844.492,829.961,0.000,0.000,0
1508373970.702,835.307,813.923,845.931,835.650,0.000,0.000,0
1508373970.704,834.485,813.991,847.233,838.597,0.000,0.000,0
1508373970.706,832.977,813.854,845.863,837.295,0.000,0.000,0
1508373970.708,839.900,813.923,847.028,840.928,0.000,0.000,0
1508373970.710,856.555,812.689,849.221,857.720,0.000,0.000,0
1508373970.712,858.954,811.181,848.741,853.745,0.000,0.000,0
1508373970.714,852.305,811.592,847.987,843.395,0.000,0.000,0
1508373970.716,842.504,813.923,847.508,835.993,0.000,0.000,0
1508373970.718,836.884,813.306,847.645,841.407,0.000,0.000,0
1508373970.720,832.771,813.923,848.536,845.794,0.000,0.000,0
1508373970.722,837.569,816.116,850.044,851.140,0.000,0.000,0
1508373970.724,837.980,812.826,849.221,847.508,0.000,0.000,0
1508373970.726,849.701,812.826,849.358,854.430,0.000,0.000,0
1508373970.728,850.112,812.894,847.919,847.713,0.000,0.000,0
1508373970.730,851.414,813.648,845.863,839.420,0.000,0.000,0
1508373970.732,852.237,816.321,844.218,834.348,0.000,0.000,0
1508373970.734,855.321,816.390,842.367,839.900,0.000,0.000,0
1508373970.736,848.741,815.979,843.601,842.984,0.000,0.000,0
1508373970.738,839.968,817.555,846.617,847.370,0.000,0.000,0
1508373970.740,836.678,817.761,847.919,843.532,0.000,0.000,0
1508373970.742,833.457,813.032,846.548,835.924,0.000,0.000,0
1508373970.744,837.364,809.810,845.657,845.383,0.000,0.000,0
1508373970.746,839.694,809.742,843.669,838.392,0.000,0.000,0
1508373970.748,840.791,812.415,842.230,830.989,0.000,0.000,0
1508373970.750,846.000,817.692,845.520,836.747,0.000,0.000,0
1508373970.752,854.979,817.281,847.028,840.585,0.000,0.000,0
1508373970.754,853.471,814.745,845.109,836.815,0.000,0.000,0
1508373970.756,846.137,815.773,846.068,838.734,0.000,0.000,0
1508373970.758,842.573,818.446,846.891,845.040,0.000,0.000,0
1508373970.760,838.666,817.144,847.576,852.305,0.000,0.000,0
1508373970.762,836.610,815.225,848.467,844.218,0.000,0.000,0
1508373970.764,832.908,814.197,846.342,837.912,0.000,0.000,0
1508373970.766,841.065,817.144,846.822,848.467,0.000,0.000,0
1508373970.768,848.604,814.539,846.959,846.411,0.000,0.000,0
1508373970.770,850.866,816.116,847.165,836.267,0.000,0.000,0
1508373970.772,857.446,814.951,844.834,834.759,0.000,0.000,0
1508373970.774,856.829,811.592,844.081,836.884,0.000,0.000,0
1508373970.776,853.402,809.742,844.492,843.190,0.000,0.000,0
1508373970.778,849.906,812.003,844.286,850.592,0.000,0.000,0
1508373970.780,837.295,813.648,845.109,843.121,0.000,0.000,0
1508373970.782,828.316,812.894,842.641,837.089,0.000,0.000,0
1508373970.784,836.130,813.648,842.573,837.775,0.000,0.000,0
1508373970.786,846.822,810.701,845.383,839.831,0.000,0.000,0
1508373970.788,847.439,808.851,845.109,838.597,0.000,0.000,0
1508373970.790,847.713,807.960,844.149,835.033,0.000,0.000,0
1508373970.792,861.216,809.810,844.834,846.000,0.000,0.000,0
1508373970.794,858.200,810.427,842.984,844.218,0.000,0.000,0
1508373970.796,846.205,808.371,840.105,838.460,0.000,0.000,0
1508373970.798,831.400,809.604,839.968,826.534,0.000,0.000,0
1508373970.800,831.332,810.770,842.504,831.469,0.000,0.000,0
1508373970.802,831.880,812.552,843.601,836.061,0.000,0.000,0
1508373970.804,836.884,815.430,845.520,835.924,0.000,0.000,0
1508373970.806,843.738,817.966,844.972,837.226,0.000,0.000,0
1508373970.808,853.402,821.325,844.218,839.283,0.000,0.000,0
1508373970.810,863.203,821.462,846.822,848.878,0.000,0.000,0
1508373970.812,862.038,815.705,845.588,849.495,0.000,0.000,0
1508373970.814,864.437,815.088,844.423,848.124,0.000,0.000,0
1508373970.816,852.991,816.184,842.641,839.146,0.000,0.000,0
1508373970.818,845.383,817.144,844.766,845.520,0.000,0.000,0
1508373970.820,833.662,816.664,845.109,848.947,0.000,0.000,0
1508373970.822,831.400,817.624,845.314,848.810,0.000,0.000,0
1508373970.824,835.239,819.406,845.246,842.710,0.000,0.000,0
1508373970.826,843.532,821.325,846.822,841.750,0.000,0.000,0
1508373970.828,853.950,818.446,848.536,860.119,0.000,0.000,0
1508373970.830,859.228,815.430,847.439,855.870,0.000,0.000,0
1508373970.832,856.761,813.169,846.548,849.221,0.000,0.000,0
1508373970.834,851.894,815.293,848.193,852.922,0.000,0.000,0
1508373970.836,846.822,814.608,848.330,850.866,0.000,0.000,0
1508373970.838,839.762,815.362,846.685,844.012,0.000,0.000,0
1508373970.840,837.706,817.761,847.850,847.576,0.000,0.000,0
1508373970.842,831.195,817.487,845.863,852.031,0.000,0.000,0
1508373970.844,833.251,819.474,847.987,848.536,0.000,0.000,0
1508373970.846,838.940,816.870,847.919,845.520,0.000,0.000,0
1508373970.848,842.641,814.951,845.520,839.488,0.000,0.000,0
1508373970.850,848.056,815.293,845.246,840.379,0.000,0.000,0
1508373970.852,853.676,813.511,843.532,848.399,0.000,0.000,0
1508373970.854,839.968,812.278,843.190,838.186,0.000,0.000,0
1508373970.856,834.211,815.362,843.121,839.900,0.000,0.000,0
1508373970.858,837.638,817.898,846.891,836.061,0.000,0.000,0
1508373970.860,841.407,817.075,850.044,835.581,0.000,0.000,0
1508373970.862,841.819,813.580,850.866,844.492,0.000,0.000,0
1508373970.864,838.940,809.125,850.044,843.190,0.000,0.000,0
1508373970.866,835.307,810.564,849.358,833.936,0.000,0.000,0
1508373970.868,844.629,813.648,850.523,839.968,0.000,0.000,0
1508373970.870,855.458,817.487,851.757,845.383,0.000,0.000,0
1508373970.872,857.789,816.801,848.467,841.202,0.000,0.000,0
1508373970.874,862.312,818.857,849.769,842.230,0.000,0.000,0
1508373970.876,860.599,816.116,849.221,844.149,0.000,0.000,0
1508373970.878,845.863,813.854,849.495,841.270,0.000,0.000,0
1508373970.880,838.871,814.334,849.838,838.186,0.000,0.000,0
1508373970.882,836.678,812.346,848.262,829.344,0.000,0.000,0
1508373970.884,843.532,813.991,848.878,836.061,0.000,0.000,0
1508373970.886,843.327,814.128,847.302,837.021,0.000,0.000,0
1508373970.888,842.984,813.991,844.423,838.529,0.000,0.000,0
1508373970.890,842.847,813.237,843.806,843.121,0.000,0.000,0
1508373970.892,846.342,815.636,844.697,841.065,0.000,0.000,0
1508373970.894,849.221,816.321,844.629,838.186,0.000,0.000,0
1508373970.896,851.140,816.596,845.451,851.552,0.000,0.000,0
1508373970.898,837.226,815.773,843.532,841.339,0.000,0.000,0
1508373970.900,822.285,817.144,842.504,830.441,0.000,0.000,0
1508373970.902,819.886,815.430,840.654,825.232,0.000,0.000,0
1508373970.904,824.204,810.633,841.819,828.453,0.000,0.000,0
1508373970.906,830.784,809.056,843.806,832.703,0.000,0.000,0
1508373970.908,845.726,809.673,844.697,847.782,0.000,0.000,0
1508373970.910,852.031,816.253,846.685,852.374,0.000,0.000,0
1508373970.912,854.362,817.007,845.109,850.866,0.000,0.000,0
1508373970.914,846.137,816.733,845.246,829.413,0.000,0.000,0
1508373970.916,850.729,819.200,847.439,833.525,0.000,0.000,0
1508373970.918,839.146,821.051,846.959,841.407,0.000,0.000,0
1508373970.920,838.940,822.422,846.685,846.205,0.000,0.000,0
1508373970.922,837.021,820.365,847.576,843.395,0.000,0.000,0
1508373970.924,834.211,818.309,845.246,837.295,0.000,0.000,0
1508373970.926,840.311,815.156,843.464,839.146,0.000,0.000,0
1508373970.928,848.330,812.003,843.190,845.726,0.000,0.000,0
1508373970.930,844.972,810.564,842.161,838.255,0.000,0.000,0
1508373970.932,851.414,810.427,840.516,834.965,0.000,0.000,0
1508373970.934,856.281,812.689,839.968,830.921,0.000,0.000,0
1508373970.936,852.305,815.773,840.516,835.376,0.000,0.000,0
1508373970.938,842.024,815.636,838.186,839.351,0.000,0.000,0
1508373970.940,833.251,815.293,839.009,840.037,0.000,0.000,0
1508373970.942,838.186,816.870,839.831,844.423,0.000,0.000,0
1508373970.944,834.485,817.281,838.666,838.117,0.000,0.000,0
1508373970.946,838.871,814.128,838.186,834.828,0.000,0.000,0
1508373970.948,841.956,813.443,839.900,826.671,0.000,0.000,0
1508373970.950,847.439,814.677,839.968,833.662,0.000,0.000,0
1508373970.952,853.950,812.483,837.775,837.569,0.000,0.000,0
1508373970.954,853.813,812.552,839.351,840.516,0.000,0.000,0
1508373970.956,842.778,811.387,836.541,837.843,0.000,0.000,0
1508373970.958,826.534,808.234,835.376,834.759,0.000,0.000,0
1508373970.960,823.792,807.822,835.513,843.052,0.000,0.000,0
1508373970.962,830.647,810.496,837.912,836.815,0.000,0.000,1
1508373970.964,829.618,810.016,838.460,828.522,0.000,0.000,0
1508373970.966,827.219,810.358,841.545,828.179,0.000,0.000,0
1508373970.968,838.392,811.729,841.476,835.856,0.000,0.000,0
1508373970.970,846.137,812.003,842.230,844.081,0.000,0.000,0
1508373970.972,851.003,809.810,843.943,846.685,0.000,0.000,0
1508373970.974,849.632,807.891,843.121,846.205,0.000,0.000,0
1508373970.976,848.604,806.383,845.451,854.088,0.000,0.000,0
1508373970.978,839.488,809.056,847.508,850.866,0.000,0.000,0
1508373970.980,831.880,813.032,843.601,840.516,0.000,0.000,0
1508373970.982,821.668,816.664,844.629,822.079,0.000,0.000,0
1508373970.984,833.388,817.692,845.726,827.699,0.000,0.000,0
1508373970.986,841.065,815.362,846.342,834.005,0.000,0.000,0
1508373970.988,847.850,812.620,844.423,838.940,0.000,0.000,0
1508373970.990,849.016,814.197,843.190,839.420,0.000,0.000,0
1508373970.992,850.455,813.580,843.875,842.024,0.000,0.000,0
1508373970.994,849.495,810.907,845.451,853.608,0.000,0.000,0
1508373970.996,837.158,810.496,846.068,847.370,0.000,0.000,0
1508373970.998,826.808,812.209,843.943,840.448,0.000,0.000,0
1508373971.000,827.014,815.636,846.822,841.819,0.000,0.000,0
1508373971.002,826.123,816.047,847.576,839.283,0.000,0.000,0
1508373971.004,824.204,814.814,847.096,835.581,0.000,0.000,0
1508373971.006,833.799,814.539,844.834,825.917,0.000,0.000,0
1508373971.008,843.738,814.128,843.532,822.422,0.000,0.000,0
1508373971.010,847.782,812.963,843.532,835.102,0.000,0.000,0
1508373971.012,849.427,815.499,846.068,841.545,0.000,0.000,0
1508373971.014,849.153,816.938,843.806,837.158,0.000,0.000,0
1508373971.016,845.451,816.527,842.161,834.553,0.000,0.000,0
1508373971.018,833.799,812.826,840.722,840.516,0.000,0.000,0
1508373971.020,830.921,813.717,840.174,837.912,0.000,0.000,0
1508373971.022,839.625,814.745,842.710,843.395,0.000,0.000,0
1508373971.024,844.012,814.539,844.492,841.613,0.000,0.000,0
1508373971.026,840.654,813.991,842.984,838.255,0.000,0.000,0
1508373971.028,836.473,813.854,842.436,835.924,0.000,0.000,0
1508373971.030,841.270,811.318,842.710,838.392,0.000,0.000,0
1508373971.032,849.084,810.770,845.040,841.545,0.000,0.000,0
1508373971.034,853.539,811.318,844.218,839.625,0.000,0.000,0
1508373971.036,852.648,813.374,844.972,842.093,0.000,0.000,0
1508373971.038,846.205,812.689,844.697,838.049,0.000,0.000,0
1508373971.040,837.089,814.882,845.383,830.852,0.000,0.000,0
1508373971.042,830.235,812.757,843.258,829.070,0.000,0.000,0
1508373971.044,836.267,810.975,841.956,836.747,0.000,0.000,0
1508373971.046,839.488,811.112,842.093,829.550,0.000,0.000,0
1508373971.048,840.791,811.661,840.242,827.631,0.000,0.000,0
1508373971.050,844.423,812.003,840.242,829.961,0.000,0.000,0
1508373971.052,853.813,809.536,840.037,830.578,0.000,0.000,0
1508373971.054,851.209,805.698,838.323,830.715,0.000,0.000,0
1508373971.056,841.202,806.109,839.283,831.469,0.000,0.000,0
1508373971.058,836.061,806.520,839.557,843.052,0.000,0.000,0
1508373971.060,834.622,805.149,839.214,838.871,0.000,0.000,0
1508373971.062,828.659,808.097,838.940,825.232,0.000,0.000,0
1508373971.064,826.945,813.923,840.311,825.575,0.000,0.000,0
1508373971.066,836.335,817.898,844.012,841.065,0.000,0.000,0
1508373971.068,843.601,816.390,843.532,853.059,0.000,0.000,0
1508373971.070,854.019,815.705,845.314,853.745,0.000,0.000,0
1508373971.072,857.377,813.237,846.685,853.882,0.000,0.000,0
1508373971.074,854.019,811.524,846.754,851.620,0.000,0.000,0
1508373971.076,847.028,808.645,847.096,844.629,0.000,0.000,0
1508373971.078,837.364,808.782,846.891,841.476,0.000,0.000,0
1508373971.080,837.980,808.782,847.302,851.072,0.000,0.000,0
1508373971.082,837.089,810.290,847.096,848.810,0.000,0.000,0
1508373971.084,831.332,810.358,844.560,842.847,0.000,0.000,0
1508373971.086,832.223,811.935,846.274,834.348,0.000,0.000,0
1508373971.088,837.706,812.278,851.826,836.815,0.000,0.000,0
1508373971.090,845.863,809.399,848.124,844.492,0.000,0.000,0
1508373971.092,850.249,809.262,846.479,840.928,0.000,0.000,0
1508373971.094,848.262,808.851,843.532,833.936,0.000,0.000,0
1508373971.096,834.553,810.016,841.613,827.151,0.000,0.000,0
1508373971.098,831.332,808.988,845.177,834.759,0.000,0.000,0
1508373971.100,829.344,809.467,844.972,837.569,0.000,0.000,0
1508373971.102,829.824,808.302,842.230,836.267,0.000,0.000,0
1508373971.104,835.581,807.617,842.847,839.900,0.000,0.000,0
1508373971.106,842.641,807.480,843.532,846.685,0.000,0.000,0
1508373971.108,843.738,810.838,845.040,846.205,0.000,0.000,0
1508373971.110,836.335,812.346,844.218,842.436,0.000,0.000,0
1508373971.112,846.617,813.717,846.548,851.346,0.000,0.000,0
1508373971.114,851.826,810.633,844.560,847.439,0.000,0.000,0
1508373971.116,846.754,808.439,842.230,837.501,0.000,0.000,0
1508373971.118,830.578,811.455,843.943,838.186,0.000,0.000,0
1508373971.120,827.151,815.225,842.984,842.230,0.000,0.000,0
1508373971.122,829.481,818.035,842.984,837.638,0.000,0.000,0
1508373971.124,830.921,816.938,844.629,838.323,0.000,0.000,0
1508373971.126,830.852,812.689,842.230,832.223,0.000,0.000,0
1508373971.128,836.610,808.645,840.654,838.323,0.000,0.000,0
1508373971.130,835.376,807.480,838.117,830.715,0.000,0.000,0
1508373971.132,848.536,812.483,839.009,826.877,0.000,0.000,0
1508373971.134,854.841,814.677,840.174,831.538,0.000,0.000,0
1508373971.136,849.153,813.991,840.928,836.198,0.000,0.000,0
1508373971.138,838.392,813.580,841.956,840.379,0.000,0.000,0
1508373971.140,833.251,815.499,840.654,841.682,0.000,0.000,0
1508373971.142,836.952,817.829,840.516,841.545,0.000,0.000,0
1508373971.144,839.488,819.817,844.012,843.190,0.000,0.000,0
1508373971.146,837.295,817.075,843.121,841.545,0.000,0.000,0
1508373971.148,845.657,816.870,843.327,845.657,0.000,0.000,0
1508373971.150,856.007,820.640,842.573,846.685,0.000,0.000,0
1508373971.152,856.761,817.624,839.488,843.601,0.000,0.000,0
1508373971.154,857.103,812.963,841.202,847.165,0.000,0.000,0
1508373971.156,854.567,809.604,842.230,845.314,0.000,0.000,0
1508373971.158,844.492,808.234,840.379,840.311,0.000,0.000,0
1508373971.160,845.931,812.620,844.834,850.455,0.000,0.000,0
1508373971.162,843.052,813.443,846.205,846.891,0.000,0.000,0
1508373971.164,839.488,813.511,845.246,834.485,0.000,0.000,0
1508373971.166,845.863,816.390,846.411,835.513,0.000,0.000,0
1508373971.168,857.309,815.019,845.726,844.218,0.000,0.000,0
1508373971.170,864.780,812.003,844.903,847.508,0.000,0.000,0
1508373971.172,870.537,811.455,844.834,850.798,0.000,0.000,0
1508373971.174,857.926,810.496,841.270,844.903,0.000,0.000,0
1508373971.176,853.608,810.907,841.750,850.455,0.000,0.000,0
1508373971.178,844.903,811.455,841.750,847.302,0.000,0.000,0
1508373971.180,841.476,812.278,840.859,840.242,0.000,0.000,0
1508373971.182,839.146,816.321,843.669,833.799,0.000,0.000,0
1508373971.184,846.754,818.446,843.601,842.710,0.000,0.000,0
1508373971.186,852.374,817.144,844.423,844.903,0.000,0.000,0
1508373971.188,854.225,814.745,844.081,844.629,0.000,0.000,0
1508373971.190,861.421,813.032,842.847,843.464,0.000,0.000,0
1508373971.192,876.912,816.801,845.520,849.016,0.000,0.000,0
1508373971.194,878.351,818.583,847.233,863.135,0.000,0.000,0
1508373971.196,866.425,816.253,847.233,861.284,0.000,0.000,0
1508373971.198,850.729,814.060,845.657,855.390,0.000,0.000,0
1508373971.200,843.943,817.007,846.205,853.882,0.000,0.000,0
1508373971.202,847.782,820.160,845.794,846.274,0.000,0.000,0
1508373971.204,849.016,816.527,845.383,843.532,0.000,0.000,0
1508373971.206,845.657,814.608,846.548,843.875,0.000,0.000,0
1508373971.208,856.349,815.842,847.645,850.249,0.000,0.000,0
1508373971.210,862.724,815.088,845.588,847.302,0.000,0.000,0
1508373971.212,864.163,812.072,844.629,842.573,0.000,0.000,0
1508373971.214,855.938,810.496,843.532,835.581,0.000,0.000,0
1508373971.216,853.813,811.112,842.504,840.859,0.000,0.000,0
1508373971.218,845.383,810.907,840.516,840.859,0.000,0.000,0
1508373971.220,838.940,812.003,841.133,840.722,0.000,0.000,0
1508373971.222,838.666,814.471,843.395,841.819,0.000,0.000,0
1508373971.224,838.117,817.144,845.863,844.560,0.000,0.000,0
1508373971.226,846.000,818.172,847.713,855.938,0.000,0.000,0
1508373971.227,844.012,816.321,846.822,851.209,0.000,0.000,0
1508373971.229,848.330,815.088,843.943,845.726,0.000,0.000,0
1508373971.231,847.165,817.007,844.972,837.912,0.000,0.000,0
1508373971.233,852.305,816.664,844.697,839.351,0.000,0.000,0
1508373971.235,846.891,816.459,843.669,836.404,0.000,0.000,0
1508373971.237,841.133,816.870,842.915,836.130,0.000,0.000,0
1508373971.239,833.045,813.169,843.327,840.654,0.000,0.000,0
1508373971.241,831.949,813.032,844.081,838.529,0.000,0.000,0
1508373971.243,839.077,813.991,843.669,843.327,0.000,0.000,0
1508373971.245,840.654,815.293,843.190,837.980,0.000,0.000,0
1508373971.247,836.335,815.773,842.024,832.634,0.000,0.000,0
1508373971.249,838.940,817.487,843.738,838.529,0.000,0.000,0
1508373971.251,847.302,814.677,843.875,839.831,0.000,0.000,0
1508373971.253,849.975,815.910,843.738,836.952,0.000,0.000,0
1508373971.255,846.205,813.032,843.121,835.856,0.000,0.000,0
1508373971.257,841.887,809.262,844.355,844.149,0.000,0.000,0
1508373971.259,834.896,809.056,843.190,839.146,0.000,0.000,0
1508373971.261,835.924,810.975,844.903,836.130,0.000,0.000,0
1508373971.263,837.295,813.100,845.520,833.183,0.000,0.000,0
1508373971.265,838.871,816.321,845.726,836.541,0.000,0.000,0
1508373971.267,845.246,817.487,844.629,848.193,0.000,0.000,0
1508373971.269,852.443,816.459,842.436,846.617,0.000,0.000,0
1508373971.271,854.636,816.596,842.641,839.146,0.000,0.000,0
1508373971.273,856.349,817.213,844.834,842.573,0.000,0.000,0
1508373971.275,852.168,815.225,840.722,843.738,0.000,0.000,0
1508373971.277,841.202,814.814,840.585,840.516,0.000,0.000,0
1508373971.279,829.344,815.019,841.682,831.469,0.000,0.000,0
1508373971.281,834.622,817.624,844.012,833.799,0.000,0.000,0
1508373971.283,844.492,817.692,842.710,840.448,0.000,0.000,0
1508373971.285,849.221,816.116,842.915,840.448,0.000,0.000,0
1508373971.287,852.305,815.156,839.900,837.569,0.000,0.000,0
1508373971.289,854.293,813.306,840.585,835.581,0.000,0.000,0
1508373971.291,852.168,810.975,841.407,835.719,0.000,0.000,0
1508373971.293,853.059,811.112,841.682,847.096,0.000,0.000,0
1508373971.295,845.588,811.935,842.436,842.847,0.000,0.000,0
1508373971.297,838.255,814.951,842.984,835.856,0.000,0.000,0
1508373971.299,835.856,817.075,845.246,832.497,0.000,0.000,0
1508373971.301,840.242,817.213,847.302,834.142,0.000,0.000,0
1508373971.303,841.270,817.555,847.713,834.485,0.000,0.000,0
1508373971.305,840.928,818.035,846.822,837.638,0.000,0.000,0
1508373971.307,851.894,816.733,848.947,850.935,0.000,0.000,0
1508373971.309,854.088,812.552,847.233,849.975,0.000,0.000,0
1508373971.311,854.293,810.975,844.149,842.161,0.000,0.000,0
1508373971.313,849.564,809.330,841.819,833.045,0.000,0.000,0
1508373971.315,848.536,811.798,842.984,829.893,0.000,0.000,0
1508373971.317,848.330,814.745,844.629,834.828,0.000,0.000,0
1508373971.319,837.432,818.515,845.246,829.893,0.000,0.000,0
1508373971.321,831.400,820.434,843.738,829.002,0.000,0.000,0
1508373971.323,828.727,818.926,842.230,834.828,0.000,0.000,0
1508373971.325,835.993,814.334,842.436,844.012,0.000,0.000,0
1508373971.327,839.694,814.882,842.093,836.335,0.000,0.000,0
1508373971.329,845.794,813.854,841.133,828.111,0.000,0.000,0
1508373971.331,842.161,814.197,842.573,821.325,0.000,0.000,0
1508373971.333,841.407,816.664,843.395,832.703,0.000,0.000,0
1508373971.335,838.529,816.870,841.819,830.784,0.000,0.000,0
1508373971.337,832.566,813.854,841.682,832.771,0.000,0.000,0
1508373971.339,826.466,810.358,842.436,831.538,0.000,0.000,0
1508373971.341,830.304,812.003,846.205,835.787,0.000,0.000,0
1508373971.343,837.089,812.689,845.588,836.884,0.000,0.000,0
1508373971.345,840.791,813.648,842.573,829.893,0.000,0.000,0
1508373971.347,836.952,813.717,841.407,819.886,0.000,0.000,0
1508373971.349,847.028,813.580,842.230,836.952,0.000,0.000,0
1508373971.351,848.536,812.141,841.613,847.576,0.000,0.000,0
1508373971.353,834.553,812.415,841.339,831.332,0.000,0.000,0
1508373971.355,830.372,815.293,843.464,833.388,0.000,0.000,0
1508373971.357,831.058,815.636,844.492,842.024,0.000,0.000,0
1508373971.359,823.313,814.128,842.847,835.787,0.000,0.000,0
1508373971.361,829.413,813.580,845.109,833.868,0.000,0.000,0
1508373971.363,834.553,818.309,847.508,832.840,0.000,0.000,0
1508373971.365,840.379,822.285,847.165,831.949,0.000,0.000,0
1508373971.367,845.520,820.914,846.617,835.993,0.000,0.000,0
1508373971.369,853.608,820.571,847.028,840.448,0.000,0.000,0
1508373971.371,860.942,817.144,846.342,844.012,0.000,0.000,0
1508373971.373,857.926,815.019,847.096,844.629,0.000,0.000,0
1508373971.375,847.302,815.293,847.302,845.246,0.000,0.000,0
1508373971.377,844.423,814.060,848.399,858.337,0.000,0.000,0
1508373971.379,834.211,813.443,847.850,847.302,0.000,0.000,0
1508373971.381,823.244,814.951,847.233,839.557,0.000,0.000,0
1508373971.383,828.933,816.321,847.028,843.532,0.000,0.000,0
1508373971.385,838.049,815.910,844.560,841.819,0.000,0.000,0
1508373971.387,848.330,816.459,844.081,846.342,0.000,0.000,0
1508373971.389,859.982,815.019,844.286,856.212,0.000,0.000,0
1508373971.391,858.063,816.253,843.052,847.850,0.000,0.000,0
1508373971.393,850.798,812.415,839.762,843.738,0.000,0.000,0
1508373971.395,842.436,810.221,839.900,834.348,0.000,0.000,0
1508373971.397,844.492,812.620,840.174,834.485,0.000,0.000,0
1508373971.399,847.165,814.471,841.065,840.928,0.000,0.000,0
1508373971.401,846.411,814.539,842.915,842.436,0.000,0.000,0
1508373971.403,844.629,814.265,843.806,843.601,0.000,0.000,0
1508373971.405,844.149,819.474,846.274,846.274,0.000,0.000,0
1508373971.407,848.604,823.792,845.863,847.850,0.000,0.000,0
1508373971.409,857.789,824.067,845.931,844.560,0.000,0.000,0
1508373971.411,870.811,821.051,845.726,857.789,0.000,0.000,0
1508373971.413,862.312,818.172,844.972,853.608,0.000,0.000,0
1508373971.415,852.168,817.350,844.834,842.915,0.000,0.000,0
1508373971.417,842.847,818.995,844.903,841.887,0.000,0.000,0
1508373971.419,828.179,821.119,844.492,845.863,0.000,0.000,0
1508373971.421,830.098,819.611,842.024,837.706,0.000,0.000,0
1508373971.423,841.682,816.733,844.972,839.009,0.000,0.000,0
1508373971.425,848.056,814.197,844.218,842.984,0.000,0.000,0
1508373971.427,846.137,813.306,842.984,839.146,0.000,0.000,0
1508373971.429,840.859,813.785,841.682,827.357,0.000,0.000,0
1508373971.431,852.237,814.265,844.012,832.703,0.000,0.000,0
1508373971.433,857.446,812.826,844.629,839.146,0.000,0.000,0
1508373971.435,852.580,811.112,846.068,841.887,0.000,0.000,0
1508373971.437,844.355,810.564,844.355,842.367,0.000,0.000,0
1508373971.439,840.242,813.785,843.258,840.105,0.000,0.000,0
1508373971.441,840.859,813.237,842.504,838.323,0.000,0.000,0
1508373971.443,846.479,809.399,842.710,850.729,0.000,0.000,0
1508373971.445,838.186,807.206,840.242,838.186,0.000,0.000,0
1508373971.447,826.260,805.355,836.884,828.385,0.000,0.000,0
1508373971.449,835.924,808.302,838.255,828.796,0.000,0.000,0
1508373971.451,847.370,810.838,839.625,833.594,0.000,0.000,0
1508373971.453,849.153,813.169,840.791,840.379,0.000,0.000,0
1508373971.455,844.903,814.265,840.928,838.049,0.000,0.000,0
1508373971.457,843.875,817.075,842.573,846.685,0.000,0.000,0
1508373971.459,840.722,815.225,844.218,838.323,0.000,0.000,0
1508373971.461,829.413,814.539,843.669,829.002,0.000,0.000,0
1508373971.463,824.615,816.870,844.766,830.852,0.000,0.000,0
1508373971.465,830.921,818.378,845.314,840.037,0.000,0.000,0
1508373971.467,839.762,816.596,843.532,835.581,0.000,0.000,0
1508373971.469,842.367,816.801,842.641,832.429,0.000,0.000,0
1508373971.471,846.411,814.265,842.436,833.594,0.000,0.000,0
1508373971.473,848.947,810.975,841.613,832.703,0.000,0.000,0
1508373971.475,843.806,808.645,840.791,835.307,0.000,0.000,0
1508373971.477,840.448,809.399,841.819,847.165,0.000,0.000,0
1508373971.479,830.235,811.249,842.298,837.089,0.000,0.000,0
1508373971.481,825.300,813.374,843.601,829.893,0.000,0.000,0
1508373971.483,833.868,813.717,843.395,832.223,0.000,0.000,0
1508373971.485,843.121,815.225,841.819,834.142,0.000,0.000,0
1508373971.487,851.209,817.898,843.190,843.943,0.000,0.000,0
1508373971.489,859.502,816.047,842.778,859.708,0.000,0.000,0
1508373971.491,853.813,811.935,841.682,846.000,0.000,0.000,0
1508373971.493,844.834,810.084,841.613,832.429,0.000,0.000,0
1508373971.495,839.146,812.209,843.052,822.079,0.000,0.000,0
1508373971.497,838.803,814.677,845.931,833.114,0.000,0.000,0
1508373971.499,837.912,816.253,847.165,840.174,0.000,0.000,0
1508373971.501,831.538,814.402,847.165,835.993,0.000,0.000,0
1508373971.503,819.474,812.826,846.000,830.030,0.000,0.000,0
1508373971.505,823.655,813.237,846.822,833.251,0.000,0.000,0
1508373971.507,837.706,814.677,847.439,832.360,0.000,0.000,0
1508373971.509,848.056,814.882,848.878,837.843,0.000,0.000,0
1508373971.511,854.019,813.648,846.068,849.632,0.000,0.000,0
1508373971.513,851.346,813.374,845.451,841.133,0.000,0.000,2
1508373971.515,840.242,811.181,846.342,832.566,0.000,0.000,0
1508373971.517,834.759,811.661,848.741,835.307,0.000,0.000,0
1508373971.519,830.852,811.044,847.576,837.501,0.000,0.000,0
1508373971.521,831.675,813.100,846.068,834.759,0.000,0.000,0
1508373971.523,840.448,816.184,844.629,845.451,0.000,0.000,0
1508373971.525,842.504,818.241,843.943,841.407,0.000,0.000,0
1508373971.527,843.052,816.938,840.996,836.198,0.000,0.000,0
1508373971.529,844.423,815.362,842.367,825.300,0.000,0.000,0
1508373971.531,860.873,815.019,843.738,832.429,0.000,0.000,0
1508373971.533,865.534,816.390,842.778,842.024,0.000,0.000,0
1508373971.535,861.627,817.761,843.052,842.641,0.000,0.000,0
1508373971.537,852.100,817.898,844.492,836.404,0.000,0.000,0
1508373971.539,843.395,818.926,845.794,826.260,0.000,0.000,0
1508373971.541,841.545,818.446,846.068,828.590,0.000,0.000,0
1508373971.543,843.806,817.144,844.012,843.738,0.000,0.000,0
1508373971.545,843.532,819.132,845.520,837.364,0.000,0.000,0
1508373971.547,851.552,819.200,844.629,827.973,0.000,0.000,0
1508373971.549,867.110,817.350,846.274,828.248,0.000,0.000,0
1508373971.551,875.198,817.213,845.863,834.622,0.000,0.000,0
1508373971.553,858.817,817.418,844.149,839.283,0.000,0.000,0
1508373971.555,842.024,814.060,845.520,843.806,0.000,0.000,0
1508373971.557,837.980,812.415,847.370,847.919,0.000,0.000,0
1508373971.559,830.372,812.072,845.931,839.077,0.000,0.000,0
1508373971.561,833.388,816.390,845.040,840.379,0.000,0.000,0
1508373971.563,831.400,815.156,842.298,826.397,0.000,0.000,0
1508373971.565,836.952,812.757,842.367,828.316,0.000,0.000,0
1508373971.567,845.931,810.290,844.766,835.376,0.000,0.000,0
1508373971.569,852.991,812.003,845.657,835.239,0.000,0.000,0
1508373971.571,859.639,813.923,845.314,834.005,0.000,0.000,0
1508373971.573,855.458,814.197,845.314,836.678,0.000,0.000,0
1508373971.575,841.065,814.197,846.548,835.924,0.000,0.000,0
1508373971.577,834.622,813.854,847.233,849.769,0.000,0.000,0
1508373971.579,823.861,813.169,845.657,837.569,0.000,0.000,0
1508373971.581,818.652,811.935,845.657,827.219,0.000,0.000,0
1508373971.583,821.668,812.620,845.588,828.042,0.000,0.000,0
1508373971.585,829.002,814.745,844.629,831.126,0.000,0.000,0
1508373971.587,838.323,814.608,845.588,834.005,0.000,0.000,0
1508373971.589,847.576,812.757,844.697,845.109,0.000,0.000,0
