timestamps,TP9,FP1,FP2,TP10,n/a,n/a,Marker0
1507860315.772,862.038,824.341,842.504,847.233,0.000,0.000,0
1507860315.774,853.471,824.204,843.738,854.019,0.000,0.000,0
1507860315.776,824.821,822.764,840.996,831.263,0.000,0.000,0
1507860315.778,811.044,822.490,838.940,821.873,0.000,0.000,0
1507860315.780,799.049,818.995,838.871,806.589,0.000,0.000,0
1507860315.782,807.960,814.608,839.762,821.256,0.000,0.000,0
1507860315.784,817.075,814.334,840.516,824.683,0.000,0.000,0
1507860315.786,825.986,812.620,841.545,826.671,0.000,0.000,0
1507860315.788,838.940,813.648,840.585,831.195,0.000,0.000,0
1507860315.790,854.362,815.568,841.819,839.694,0.000,0.000,0
1507860315.792,863.066,814.128,842.093,840.722,0.000,0.000,0
1507860315.794,863.752,812.209,845.657,848.604,0.000,0.000,0
1507860315.796,836.404,814.539,844.903,826.123,0.000,0.000,0
1507860315.798,822.353,819.474,845.726,829.207,0.000,0.000,0
1507860315.800,814.814,819.406,843.327,827.219,0.000,0.000,0
1507860315.802,813.854,819.200,842.367,828.727,0.000,0.000,0
1507860315.804,819.817,821.051,840.996,828.522,0.000,0.000,0
1507860315.806,829.481,820.708,841.339,831.812,0.000,0.000,0
1507860315.808,848.878,819.474,842.847,851.277,0.000,0.000,0
1507860315.810,848.604,819.337,842.093,845.314,0.000,0.000,0
1507860315.812,857.515,814.951,843.875,840.859,0.000,0.000,0
1507860315.814,843.601,814.814,845.246,834.553,0.000,0.000,0
1507860315.816,830.372,815.910,846.205,830.715,0.000,0.000,0
1507860315.818,809.810,814.128,844.423,824.204,0.000,0.000,0
1507860315.820,802.408,818.857,841.407,824.752,0.000,0.000,0
1507860315.822,803.162,821.531,838.871,820.640,0.000,0.000,0
1507860315.824,820.982,827.357,839.557,826.808,0.000,0.000,0
1507860315.826,821.393,826.534,838.392,826.054,0.000,0.000,0
1507860315.828,836.404,827.494,839.283,834.896,0.000,0.000,0
1507860315.830,841.887,826.123,841.819,831.538,0.000,0.000,0
1507860315.832,864.094,821.873,843.806,843.464,0.000,0.000,0
1507860315.834,850.660,815.430,845.177,843.395,0.000,0.000,0
1507860315.836,837.364,815.773,843.943,833.045,0.000,0.000,0
1507860315.838,819.680,819.543,842.093,822.079,0.000,0.000,0
1507860315.840,809.947,823.930,842.298,824.067,0.000,0.000,0
1507860315.842,814.334,818.652,841.819,835.239,0.000,0.000,0
1507860315.844,819.406,816.596,842.093,832.292,0.000,0.000,0
1507860315.846,814.128,819.543,841.956,825.026,0.000,0.000,0
1507860315.848,832.360,822.490,845.109,840.174,0.000,0.000,0
1507860315.850,854.019,824.067,847.370,837.706,0.000,0.000,0
1507860315.852,866.219,827.014,846.548,831.812,0.000,0.000,0
1507860315.854,851.209,826.877,845.109,830.098,0.000,0.000,0
1507860315.856,831.743,826.945,845.451,825.986,0.000,0.000,0
1507860315.858,815.156,821.531,842.984,830.098,0.000,0.000,0
1507860315.860,804.327,820.091,841.819,825.369,0.000,0.000,0
1507860315.862,788.905,820.777,839.968,815.293,0.000,0.000,0
1507860315.864,803.710,826.328,838.940,814.402,0.000,0.000,0
1507860315.866,819.132,826.877,840.722,825.437,0.000,0.000,0
1507860315.868,843.464,826.603,841.202,830.030,0.000,0.000,0
1507860315.870,862.861,821.805,840.722,835.650,0.000,0.000,0
1507860315.872,870.811,821.119,839.557,836.267,0.000,0.000,0
1507860315.874,853.539,822.216,839.557,837.912,0.000,0.000,0
1507860315.876,845.177,822.559,836.747,840.722,0.000,0.000,0
1507860315.878,823.244,824.341,838.734,826.603,0.000,0.000,0
1507860315.880,809.947,822.833,837.501,817.966,0.000,0.000,0
1507860315.882,811.935,823.039,840.516,821.531,0.000,0.000,0
1507860315.884,821.805,823.518,839.625,826.808,0.000,0.000,0
1507860315.886,828.933,825.163,838.871,830.989,0.000,0.000,0
1507860315.888,841.407,822.285,840.448,836.267,0.000,0.000,0
1507860315.890,856.486,824.067,840.311,851.277,0.000,0.000,0
1507860315.892,863.615,824.889,840.242,845.109,0.000,0.000,0
1507860315.894,855.938,822.627,841.750,834.142,0.000,0.000,0
1507860315.896,840.242,824.821,844.423,829.276,0.000,0.000,0
1507860315.898,831.538,822.764,843.395,837.912,0.000,0.000,0
1507860315.900,815.499,822.147,839.351,826.877,0.000,0.000,0
1507860315.902,809.536,821.051,842.161,828.659,0.000,0.000,0
1507860315.904,812.826,823.381,842.298,829.207,0.000,0.000,0
1507860315.906,825.300,827.014,840.722,834.828,0.000,0.000,0
1507860315.908,851.552,830.852,843.258,854.773,0.000,0.000,0
1507860315.910,853.608,827.288,843.738,849.084,0.000,0.000,0
1507860315.912,869.098,825.095,843.601,852.922,0.000,0.000,0
1507860315.914,858.474,828.522,844.766,842.093,0.000,0.000,0
1507860315.916,847.508,831.332,844.903,836.884,0.000,0.000,0
1507860315.918,827.973,827.425,843.601,832.086,0.000,0.000,0
1507860315.920,818.241,826.397,840.996,825.506,0.000,0.000,0
1507860315.922,826.534,827.494,840.242,836.335,0.000,0.000,0
1507860315.924,824.821,829.276,841.682,826.671,0.000,0.000,0
1507860315.926,831.195,829.755,844.492,828.453,0.000,0.000,0
1507860315.928,847.645,831.606,844.834,840.311,0.000,0.000,0
1507860315.930,870.332,831.469,845.863,853.265,0.000,0.000,0
1507860315.932,874.444,829.070,842.573,841.065,0.000,0.000,0
1507860315.934,868.550,831.058,844.355,843.738,0.000,0.000,0
1507860315.936,848.193,833.183,842.915,838.734,0.000,0.000,0
1507860315.938,827.082,832.771,842.573,829.002,0.000,0.000,0
1507860315.940,820.708,832.771,842.504,825.232,0.000,0.000,0
1507860315.942,822.490,827.425,841.545,834.005,0.000,0.000,0
1507860315.944,836.404,826.603,843.601,840.037,0.000,0.000,0
1507860315.946,831.675,819.886,843.395,834.896,0.000,0.000,0
1507860315.948,842.230,820.503,846.137,843.532,0.000,0.000,0
1507860315.950,849.769,824.135,846.205,842.573,0.000,0.000,0
1507860315.952,861.696,829.002,847.713,848.878,0.000,0.000,0
1507860315.954,855.595,833.457,847.987,850.386,0.000,0.000,0
1507860315.956,840.174,834.211,845.726,842.093,0.000,0.000,0
1507860315.958,818.309,832.566,843.806,835.650,0.000,0.000,0
1507860315.960,815.362,830.989,843.601,842.298,0.000,0.000,0
1507860315.962,813.717,828.522,844.560,837.089,0.000,0.000,0
1507860315.964,826.054,826.123,841.613,835.581,0.000,0.000,0
1507860315.966,835.993,826.328,840.996,841.202,0.000,0.000,0
1507860315.968,842.710,827.357,839.762,843.258,0.000,0.000,0
1507860315.970,845.863,828.727,842.847,836.267,0.000,0.000,0
1507860315.972,864.232,831.675,845.246,843.258,0.000,0.000,0
1507860315.974,867.590,829.344,845.794,855.458,0.000,0.000,0
1507860315.976,846.891,828.590,843.395,838.392,0.000,0.000,0
1507860315.978,812.620,828.042,840.791,817.007,0.000,0.000,0
1507860315.980,800.489,824.752,838.323,815.568,0.000,0.000,0
1507860315.982,809.262,818.583,838.529,828.042,0.000,0.000,0
1507860315.984,816.116,816.459,839.694,830.235,0.000,0.000,0
1507860315.986,825.986,817.624,841.956,836.404,0.000,0.000,0
1507860315.988,844.081,821.051,844.149,838.666,0.000,0.000,0
1507860315.990,872.319,820.708,845.794,851.346,0.000,0.000,0
1507860315.992,875.609,819.680,847.439,843.190,0.000,0.000,0
1507860315.994,851.209,817.829,846.137,830.372,0.000,0.000,0
1507860315.996,834.142,825.917,846.891,820.571,0.000,0.000,0
1507860315.998,830.578,830.578,846.000,827.288,0.000,0.000,0
1507860316.000,816.184,831.332,844.492,822.833,0.000,0.000,0
1507860316.002,805.835,828.453,843.052,824.683,0.000,0.000,0
1507860316.004,809.742,829.755,843.738,826.671,0.000,0.000,0
1507860316.006,824.958,831.469,844.834,833.251,0.000,0.000,0
1507860316.008,852.717,831.263,846.068,848.878,0.000,0.000,0
1507860316.010,861.558,830.784,845.794,842.847,0.000,0.000,0
1507860316.012,867.384,830.167,846.479,843.258,0.000,0.000,0
1507860316.014,847.850,830.784,850.249,838.323,0.000,0.000,0
1507860316.016,832.360,828.933,847.096,832.771,0.000,0.000,0
1507860316.018,818.789,826.808,844.492,825.506,0.000,0.000,0
1507860316.020,807.206,825.506,841.476,820.640,0.000,0.000,0
1507860316.022,801.242,822.216,841.065,823.107,0.000,0.000,0
1507860316.024,815.293,818.378,839.488,829.687,0.000,0.000,0
1507860316.026,827.494,819.200,838.734,829.413,0.000,0.000,0
1507860316.028,835.239,821.188,838.803,831.880,0.000,0.000,0
1507860316.030,841.476,823.381,840.448,831.606,0.000,0.000,0
1507860316.032,863.820,827.836,844.081,846.068,0.000,0.000,0
1507860316.034,859.022,827.973,845.109,844.081,0.000,0.000,0
1507860316.036,843.875,823.039,846.822,838.666,0.000,0.000,0
1507860316.038,829.961,818.446,846.342,830.578,0.000,0.000,0
1507860316.040,810.016,814.608,842.504,822.079,0.000,0.000,0
1507860316.042,806.726,813.854,841.613,830.030,0.000,0.000,0
1507860316.044,821.188,818.241,842.230,830.647,0.000,0.000,0
1507860316.046,834.348,826.260,844.012,835.581,0.000,0.000,0
1507860316.048,851.003,830.578,846.068,843.190,0.000,0.000,0
1507860316.050,860.051,831.675,846.891,845.109,0.000,0.000,2
1507860316.052,865.877,835.376,847.508,846.479,0.000,0.000,0
1507860316.054,856.692,835.993,847.919,845.040,0.000,0.000,0
1507860316.056,849.290,832.977,847.165,844.149,0.000,0.000,0
1507860316.058,829.344,827.562,844.423,834.005,0.000,0.000,0
1507860316.060,815.979,825.026,844.834,835.239,0.000,0.000,0
1507860316.062,806.863,824.409,845.040,834.622,0.000,0.000,0
1507860316.064,810.290,825.095,842.641,827.425,0.000,0.000,0
1507860316.066,824.615,829.002,843.738,831.058,0.000,0.000,0
1507860316.068,837.364,831.743,845.931,836.473,0.000,0.000,0
1507860316.070,855.253,831.263,848.330,845.931,0.000,0.000,0
1507860316.072,867.316,832.429,846.274,846.822,0.000,0.000,0
1507860316.074,860.393,829.481,843.052,850.592,0.000,0.000,0
1507860316.076,846.342,824.821,843.121,842.915,0.000,0.000,0
1507860316.078,823.039,822.079,843.395,821.668,0.000,0.000,0
1507860316.080,817.418,823.861,844.012,814.814,0.000,0.000,0
1507860316.082,819.474,821.256,842.573,829.344,0.000,0.000,0
1507860316.084,812.757,820.297,840.448,829.344,0.000,0.000,0
1507860316.086,822.422,818.995,839.283,832.154,0.000,0.000,0
1507860316.088,839.968,819.063,840.516,835.650,0.000,0.000,0
1507860316.090,864.094,819.817,843.052,851.963,0.000,0.000,0
1507860316.092,872.182,822.353,845.246,850.044,0.000,0.000,0
1507860316.094,855.664,823.518,843.121,842.093,0.000,0.000,0
1507860316.096,836.335,827.151,845.177,831.675,0.000,0.000,0
1507860316.098,829.139,826.671,845.109,836.267,0.000,0.000,0
1507860316.100,813.100,820.845,841.682,826.466,0.000,0.000,0
1507860316.102,813.923,817.350,841.887,825.780,0.000,0.000,0
1507860316.104,821.736,814.539,840.791,826.191,0.000,0.000,0
1507860316.106,828.933,818.035,841.339,832.292,0.000,0.000,0
1507860316.108,846.274,821.599,842.367,847.028,0.000,0.000,0
1507860316.110,854.225,821.531,839.968,848.399,0.000,0.000,0
1507860316.112,860.051,826.671,840.448,846.342,0.000,0.000,0
1507860316.114,854.567,829.893,843.532,846.000,0.000,0.000,0
1507860316.116,845.794,826.397,843.052,840.037,0.000,0.000,0
1507860316.118,823.724,822.216,840.311,829.139,0.000,0.000,0
1507860316.120,803.641,821.256,835.787,820.297,0.000,0.000,0
1507860316.122,808.782,819.749,835.787,832.292,0.000,0.000,0
1507860316.124,805.766,818.515,836.541,822.764,0.000,0.000,0
1507860316.126,815.362,817.898,839.283,831.400,0.000,0.000,0
1507860316.128,825.986,817.898,841.682,835.170,0.000,0.000,0
1507860316.130,841.270,819.611,842.915,838.871,0.000,0.000,0
1507860316.132,857.103,821.051,842.504,841.750,0.000,0.000,0
1507860316.134,849.632,819.611,841.750,835.856,0.000,0.000,0
1507860316.136,840.585,819.886,842.230,833.457,0.000,0.000,0
1507860316.138,826.534,818.309,840.859,825.986,0.000,0.000,0
1507860316.140,811.249,817.624,839.009,817.075,0.000,0.000,0
1507860316.142,814.128,817.007,838.734,829.139,0.000,0.000,0
1507860316.144,809.262,818.446,837.089,820.297,0.000,0.000,0
1507860316.146,821.119,818.378,837.706,825.712,0.000,0.000,0
1507860316.148,834.690,820.228,840.174,829.207,0.000,0.000,0
1507860316.150,855.321,825.095,840.311,832.223,0.000,0.000,0
1507860316.152,866.630,831.126,838.940,827.905,0.000,0.000,0
1507860316.154,860.462,829.687,841.545,827.219,0.000,0.000,0
1507860316.156,857.035,822.833,842.641,839.351,0.000,0.000,0
1507860316.158,831.126,823.107,841.476,828.042,0.000,0.000,0
1507860316.160,814.265,825.575,839.077,818.446,0.000,0.000,0
1507860316.162,807.822,827.562,839.557,808.097,0.000,0.000,0
1507860316.164,825.986,824.821,842.436,826.397,0.000,0.000,0
1507860316.166,840.448,818.241,841.270,836.061,0.000,0.000,0
1507860316.168,852.785,813.717,843.601,840.448,0.000,0.000,0
1507860316.170,858.680,812.415,842.573,844.286,0.000,0.000,0
1507860316.172,859.639,819.269,843.875,846.479,0.000,0.000,0
1507860316.174,849.769,826.260,845.314,845.794,0.000,0.000,0
1507860316.176,845.314,828.796,846.548,847.302,0.000,0.000,0
1507860316.178,817.487,826.534,842.093,823.313,0.000,0.000,0
1507860316.180,804.053,823.381,839.420,813.100,0.000,0.000,0
1507860316.182,797.267,824.683,841.065,817.761,0.000,0.000,0
1507860316.184,805.355,824.889,840.516,820.845,0.000,0.000,0
1507860316.186,818.309,823.107,841.133,827.699,0.000,0.000,0
1507860316.188,839.009,817.281,843.601,843.258,0.000,0.000,0
1507860316.190,848.810,819.886,842.298,840.448,0.000,0.000,0
1507860316.192,859.228,826.466,843.806,838.734,0.000,0.000,0
1507860316.194,845.588,830.030,844.492,826.603,0.000,0.000,0
1507860316.196,839.968,828.933,844.834,827.768,0.000,0.000,0
1507860316.198,830.441,823.655,842.641,832.497,0.000,0.000,0
1507860316.200,817.213,823.313,840.722,827.905,0.000,0.000,0
1507860316.202,814.128,822.627,839.214,831.469,0.000,0.000,0
1507860316.204,821.256,822.559,838.117,831.058,0.000,0.000,0
1507860316.206,832.908,826.740,838.186,828.179,0.000,0.000,0
1507860316.208,847.233,830.441,839.625,838.460,0.000,0.000,0
1507860316.210,865.739,828.316,842.778,859.982,0.000,0.000,0
1507860316.212,865.260,829.139,844.766,849.427,0.000,0.000,0
1507860316.214,854.362,827.288,844.903,840.311,0.000,0.000,0
1507860316.216,850.112,827.357,846.617,835.102,0.000,0.000,0
1507860316.218,832.497,825.712,846.000,828.179,0.000,0.000,0
1507860316.220,815.568,822.490,843.327,827.836,0.000,0.000,0
1507860316.222,809.125,818.172,842.573,837.501,0.000,0.000,0
1507860316.224,809.125,818.172,841.887,833.320,0.000,0.000,0
1507860316.226,814.197,822.353,842.573,821.599,0.000,0.000,0
1507860316.228,832.497,825.849,845.931,827.494,0.000,0.000,0
1507860316.230,857.377,826.191,848.810,848.947,0.000,0.000,0
1507860316.232,866.356,825.026,847.713,851.757,0.000,0.000,0
1507860316.234,864.369,823.998,848.673,846.754,0.000,0.000,0
1507860316.236,848.810,822.079,847.987,838.940,0.000,0.000,0
1507860316.238,832.634,815.979,847.439,833.045,0.000,0.000,0
1507860316.240,823.861,813.648,845.657,827.631,0.000,0.000,0
1507860316.242,833.662,819.543,844.972,840.105,0.000,0.000,0
1507860316.244,832.086,826.397,843.190,829.070,0.000,0.000,0
1507860316.246,831.606,832.840,843.669,827.699,0.000,0.000,0
1507860316.248,838.392,833.936,845.451,832.634,0.000,0.000,0
1507860316.250,850.112,829.070,844.492,839.900,0.000,0.000,0
1507860316.252,857.994,827.494,844.081,842.161,0.000,0.000,0
1507860316.254,852.305,827.425,844.149,844.560,0.000,0.000,0
1507860316.256,853.471,826.877,845.177,853.539,0.000,0.000,0
1507860316.258,830.578,826.397,840.928,838.940,0.000,0.000,0
1507860316.260,820.708,824.821,839.146,837.706,0.000,0.000,0
1507860316.262,814.677,824.204,841.065,825.163,0.000,0.000,0
1507860316.264,818.926,824.958,841.133,819.749,0.000,0.000,0
1507860316.266,821.462,824.821,841.407,824.272,0.000,0.000,0
1507860316.268,833.594,823.107,842.984,831.058,0.000,0.000,0
1507860316.270,853.402,821.873,841.750,846.685,0.000,0.000,0
1507860316.272,858.954,823.792,841.407,834.279,0.000,0.000,0
1507860316.274,856.761,822.147,843.875,832.017,0.000,0.000,0
1507860316.276,838.871,821.051,843.190,830.030,0.000,0.000,0
1507860316.278,822.353,820.845,841.613,829.139,0.000,0.000,0
1507860316.280,814.334,823.655,839.900,823.381,0.000,0.000,0
1507860316.282,812.483,823.244,838.392,813.923,0.000,0.000,0
1507860316.284,822.147,825.095,839.557,816.459,0.000,0.000,0
1507860316.286,823.450,822.696,839.900,821.051,0.000,0.000,0
1507860316.288,841.887,822.559,841.476,836.130,0.000,0.000,0
1507860316.290,857.240,823.655,841.339,838.255,0.000,0.000,0
1507860316.292,867.864,823.724,841.270,842.778,0.000,0.000,0
1507860316.294,855.116,823.244,844.766,833.320,0.000,0.000,0
1507860316.296,849.769,824.889,847.576,836.952,0.000,0.000,0
1507860316.298,835.376,823.587,845.863,837.706,0.000,0.000,0
1507860316.300,824.615,823.587,844.218,832.223,0.000,0.000,0
1507860316.302,818.583,823.861,842.093,830.030,0.000,0.000,0
1507860316.304,821.531,825.232,839.214,829.893,0.000,0.000,0
1507860316.306,835.924,825.506,840.379,832.977,0.000,0.000,0
1507860316.308,847.987,825.575,842.710,839.488,0.000,0.000,0
1507860316.310,868.755,824.478,845.314,861.216,0.000,0.000,0
1507860316.312,871.497,821.805,845.863,854.773,0.000,0.000,0
1507860316.314,858.611,820.982,844.834,848.878,0.000,0.000,0
1507860316.316,846.000,823.039,845.451,842.504,0.000,0.000,0
1507860316.318,831.812,828.111,844.697,835.650,0.000,0.000,0
1507860316.320,819.543,827.836,842.573,830.784,0.000,0.000,0
1507860316.322,822.833,825.300,842.436,844.081,0.000,0.000,0
1507860316.324,817.692,823.313,839.694,832.017,0.000,0.000,0
1507860316.326,825.712,822.696,839.762,836.267,0.000,0.000,0
1507860316.328,840.379,822.010,840.242,848.604,0.000,0.000,0
1507860316.330,846.205,821.256,839.900,848.193,0.000,0.000,0
1507860316.332,861.216,823.107,839.351,854.704,0.000,0.000,0
1507860316.334,853.950,821.668,840.516,854.979,0.000,0.000,0
1507860316.336,833.936,819.200,841.613,840.037,0.000,0.000,0
1507860316.338,825.506,818.995,839.420,830.647,0.000,0.000,0
1507860316.340,811.181,815.293,836.198,818.995,0.000,0.000,0
1507860316.342,806.657,815.773,837.089,818.926,0.000,0.000,0
1507860316.344,817.692,815.225,836.404,827.425,0.000,0.000,0
1507860316.346,817.487,815.773,836.061,834.485,0.000,0.000,0
1507860316.348,821.188,816.527,835.856,835.033,0.000,0.000,0
1507860316.350,836.404,815.568,835.033,830.715,0.000,0.000,0
1507860316.352,854.156,820.571,839.351,836.198,0.000,0.000,0
1507860316.354,849.838,821.736,840.585,838.049,0.000,0.000,0
1507860316.356,846.205,821.119,841.202,847.782,0.000,0.000,0
1507860316.358,824.135,821.805,840.791,828.727,0.000,0.000,0
1507860316.360,808.782,822.147,838.940,816.527,0.000,0.000,0
1507860316.362,792.538,824.204,839.488,804.053,0.000,0.000,0
1507860316.364,809.947,822.901,839.694,819.680,0.000,0.000,0
1507860316.366,822.901,820.571,837.843,825.300,0.000,0.000,0
1507860316.368,834.965,821.325,839.283,829.070,0.000,0.000,0
1507860316.370,846.548,818.926,840.585,833.868,0.000,0.000,0
1507860316.372,857.446,817.624,843.327,839.488,0.000,0.000,0
1507860316.374,859.091,817.966,846.137,847.713,0.000,0.000,0
1507860316.376,847.165,815.293,843.052,846.891,0.000,0.000,0
1507860316.378,823.039,816.870,843.052,827.288,0.000,0.000,0
1507860316.380,802.202,819.063,841.956,813.443,0.000,0.000,0
1507860316.382,798.364,818.995,841.407,821.599,0.000,0.000,0
1507860316.384,805.698,817.966,841.407,825.917,0.000,0.000,0
1507860316.386,820.297,820.091,841.202,831.743,0.000,0.000,0
1507860316.388,838.255,821.119,839.420,837.843,0.000,0.000,0
1507860316.390,844.423,819.474,836.198,843.121,0.000,0.000,0
1507860316.392,852.991,825.849,839.694,839.214,0.000,0.000,0
1507860316.394,861.421,827.219,844.766,842.367,0.000,0.000,0
1507860316.396,848.878,824.478,845.246,840.928,0.000,0.000,0
1507860316.398,821.942,821.051,843.738,830.304,0.000,0.000,0
1507860316.400,796.170,819.886,842.504,816.390,0.000,0.000,0
1507860316.402,798.364,816.938,843.395,828.659,0.000,0.000,0
1507860316.404,799.940,814.882,840.996,820.365,0.000,0.000,0
1507860316.406,815.088,820.160,840.311,815.636,0.000,0.000,0
1507860316.408,837.295,819.886,843.327,829.961,0.000,0.000,0
1507860316.410,847.370,816.321,841.682,839.488,0.000,0.000,0
1507860316.412,846.000,821.051,842.093,828.385,0.000,0.000,0
1507860316.414,854.773,824.204,843.669,838.734,0.000,0.000,0
1507860316.416,850.866,824.272,843.395,838.940,0.000,0.000,0
1507860316.418,833.388,821.325,842.984,827.631,0.000,0.000,0
1507860316.420,798.775,818.515,841.750,804.944,0.000,0.000,0
1507860316.422,807.685,817.487,844.012,820.982,0.000,0.000,0
1507860316.424,809.330,812.689,842.161,821.531,0.000,0.000,0
1507860316.426,823.244,810.221,842.915,828.522,0.000,0.000,0
1507860316.428,828.042,812.757,845.451,825.712,0.000,0.000,0
1507860316.430,844.560,819.269,844.766,833.936,0.000,0.000,0
1507860316.432,859.913,829.550,845.520,834.553,0.000,0.000,0
1507860316.434,861.216,833.045,847.165,838.323,0.000,0.000,0
1507860316.436,848.193,831.675,847.645,835.856,0.000,0.000,0
1507860316.438,822.970,831.469,845.794,826.808,0.000,0.000,0
1507860316.440,805.081,830.030,843.258,820.434,0.000,0.000,0
1507860316.442,811.249,823.655,843.875,830.167,0.000,0.000,0
1507860316.444,811.798,821.393,841.133,819.680,0.000,0.000,0
1507860316.446,818.515,820.777,841.339,822.490,0.000,0.000,0
1507860316.448,826.397,821.051,843.121,826.260,0.000,0.000,0
1507860316.450,841.202,822.764,842.298,830.647,0.000,0.000,0
1507860316.452,857.789,825.986,841.270,833.799,0.000,0.000,0
1507860316.454,856.829,827.425,841.956,834.759,0.000,0.000,0
1507860316.456,850.592,825.780,842.984,842.504,0.000,0.000,0
1507860316.458,825.849,821.736,840.722,825.300,0.000,0.000,0
1507860316.460,808.371,817.692,840.928,817.898,0.000,0.000,0
1507860316.462,793.018,816.527,841.476,811.935,0.000,0.000,0
1507860316.464,812.346,816.870,842.778,830.235,0.000,0.000,0
1507860316.466,825.369,818.583,842.504,836.335,0.000,0.000,0
1507860316.468,839.283,820.982,844.355,840.996,0.000,0.000,0
1507860316.470,855.664,825.712,843.806,842.573,0.000,0.000,0
1507860316.472,868.892,831.332,844.903,842.710,0.000,0.000,0
1507860316.474,874.307,831.812,843.943,854.088,0.000,0.000,0
1507860316.476,854.499,829.344,844.697,842.984,0.000,0.000,0
1507860316.478,827.288,826.191,847.439,821.531,0.000,0.000,0
1507860316.480,802.819,820.571,844.629,811.112,0.000,0.000,0
1507860316.482,801.585,819.611,841.956,816.733,0.000,0.000,0
1507860316.484,810.975,824.478,840.928,824.067,0.000,0.000,0
1507860316.486,827.014,827.631,842.024,829.070,0.000,0.000,0
1507860316.488,837.501,829.618,842.847,833.868,0.000,0.000,0
1507860316.490,861.970,827.905,844.149,853.196,0.000,0.000,0
1507860316.492,870.195,828.453,845.931,848.399,0.000,0.000,0
1507860316.494,858.406,826.260,846.342,845.040,0.000,0.000,0
1507860316.496,846.685,825.643,847.370,834.965,0.000,0.000,0
1507860316.498,832.429,823.039,846.822,830.852,0.000,0.000,0
1507860316.500,815.842,821.119,843.943,824.478,0.000,0.000,0
1507860316.502,812.894,821.873,840.654,823.792,0.000,0.000,0
1507860316.504,816.801,823.792,838.529,823.176,0.000,0.000,0
1507860316.506,830.578,825.026,841.819,841.339,0.000,0.000,0
1507860316.508,835.239,822.970,843.464,840.928,0.000,0.000,0
1507860316.510,846.479,823.724,842.847,836.747,0.000,0.000,0
1507860316.512,855.801,829.344,845.588,831.332,0.000,0.000,0
1507860316.514,863.820,829.893,847.096,847.233,0.000,0.000,0
1507860316.516,846.617,825.437,846.548,842.710,0.000,0.000,0
1507860316.518,830.509,824.752,843.190,831.675,0.000,0.000,0
1507860316.520,816.938,825.780,842.436,825.232,0.000,0.000,0
1507860316.522,814.882,825.369,843.464,826.123,0.000,0.000,0
1507860316.524,822.627,826.671,843.601,830.304,0.000,0.000,0
1507860316.526,822.559,825.095,837.021,832.223,0.000,0.000,0
1507860316.528,833.525,825.300,838.049,840.859,0.000,0.000,0
1507860316.530,843.190,826.328,841.819,839.694,0.000,0.000,0
1507860316.532,859.982,826.466,843.806,844.492,0.000,0.000,0
1507860316.534,859.708,824.752,844.629,846.891,0.000,0.000,0
1507860316.536,847.028,820.982,845.383,842.573,0.000,0.000,0
1507860316.538,829.276,820.160,843.052,833.868,0.000,0.000,0
1507860316.540,822.833,820.708,840.037,838.529,0.000,0.000,0
1507860316.542,813.374,823.724,839.214,831.195,0.000,0.000,0
1507860316.544,815.225,826.808,838.460,825.300,0.000,0.000,0
1507860316.546,826.466,830.852,839.214,825.917,0.000,0.000,0
1507860316.548,849.838,831.400,840.311,848.262,0.000,0.000,0
1507860316.550,861.696,828.659,842.436,852.580,0.000,0.000,0
1507860316.552,867.727,828.316,843.738,854.499,0.000,0.000,0
1507860316.554,861.421,829.276,845.177,850.660,0.000,0.000,0
1507860316.556,853.608,829.002,844.423,836.678,0.000,0.000,0
1507860316.558,845.040,826.397,842.504,833.731,0.000,0.000,0
1507860316.560,824.478,823.313,838.049,827.699,0.000,0.000,0
1507860316.562,818.583,823.587,837.775,827.836,0.000,0.000,0
1507860316.564,819.886,827.425,839.009,822.422,0.000,0.000,0
1507860316.566,824.341,827.151,840.516,824.135,0.000,0.000,0
1507860316.568,840.242,828.385,840.722,832.086,0.000,0.000,0
1507860316.570,856.829,831.812,840.722,842.298,0.000,0.000,0
1507860316.572,875.472,831.675,841.065,856.555,0.000,0.000,0
1507860316.574,856.144,825.575,839.831,844.903,0.000,0.000,0
1507860316.576,839.214,823.176,838.597,835.856,0.000,0.000,0
1507860316.578,823.244,824.752,839.968,813.306,0.000,0.000,0
1507860316.580,819.954,825.300,842.161,822.353,0.000,0.000,0
1507860316.582,816.801,825.300,842.573,827.973,0.000,0.000,0
1507860316.584,825.917,825.506,840.996,830.989,0.000,0.000,0
1507860316.586,836.541,825.232,842.778,836.678,0.000,0.000,0
1507860316.588,845.863,825.506,843.943,842.710,0.000,0.000,0
1507860316.590,858.337,831.332,843.806,846.205,0.000,0.000,0
1507860316.592,876.637,824.821,841.819,854.088,0.000,0.000,0
1507860316.594,868.687,822.696,840.996,845.657,0.000,0.000,0
1507860316.596,849.838,823.518,839.488,826.534,0.000,0.000,0
1507860316.598,829.481,825.026,840.448,820.914,0.000,0.000,0
1507860316.600,810.564,828.316,840.448,822.422,0.000,0.000,0
1507860316.602,803.847,830.235,840.516,827.151,0.000,0.000,0
1507860316.604,820.434,831.880,841.270,834.622,0.000,0.000,0
1507860316.606,833.388,831.058,840.311,837.569,0.000,0.000,0
1507860316.608,851.277,831.400,841.065,840.791,0.000,0.000,0
1507860316.610,849.290,831.675,841.065,829.070,0.000,0.000,0
1507860316.612,857.172,831.469,841.133,829.961,0.000,0.000,0
1507860316.614,855.116,826.328,841.407,843.738,0.000,0.000,0
1507860316.616,837.980,822.285,843.052,840.448,0.000,0.000,0
1507860316.618,829.002,823.861,845.314,832.771,0.000,0.000,0
1507860316.620,813.648,826.534,843.532,825.712,0.000,0.000,0
1507860316.622,808.371,826.260,841.407,826.740,0.000,0.000,0
1507860316.624,817.692,825.369,842.161,829.618,0.000,0.000,0
1507860316.626,841.270,825.712,844.903,844.629,0.000,0.000,0
1507860316.628,846.000,824.683,845.451,832.977,0.000,0.000,0
1507860316.630,854.156,826.123,845.863,835.787,0.000,0.000,0
1507860316.632,861.970,830.304,847.302,838.392,0.000,0.000,0
1507860316.634,858.680,830.647,847.508,839.557,0.000,0.000,0
1507860316.636,843.258,826.945,845.726,835.787,0.000,0.000,0
1507860316.638,828.933,826.328,844.492,834.416,0.000,0.000,0
1507860316.640,809.947,821.942,841.682,824.067,0.000,0.000,0
1507860316.642,811.249,820.845,841.750,830.030,0.000,0.000,0
1507860316.644,803.847,823.930,840.516,820.160,0.000,0.000,0
1507860316.646,823.587,829.687,842.573,830.921,0.000,0.000,0
1507860316.648,844.629,829.070,844.149,841.476,0.000,0.000,0
1507860316.650,860.188,829.139,846.205,842.367,0.000,0.000,0
1507860316.652,866.425,828.385,845.177,838.186,0.000,0.000,0
1507860316.654,862.038,826.466,845.246,840.174,0.000,0.000,0
1507860316.656,851.552,824.752,847.302,838.666,0.000,0.000,0
1507860316.658,843.875,824.067,845.588,844.355,0.000,0.000,0
1507860316.660,814.334,826.054,841.545,830.715,0.000,0.000,0
1507860316.662,787.534,828.522,839.968,815.293,0.000,0.000,0
1507860316.664,794.800,830.852,840.859,821.942,0.000,0.000,0
1507860316.666,808.234,827.836,841.133,825.780,0.000,0.000,0
1507860316.668,822.216,825.986,842.504,834.211,0.000,0.000,0
1507860316.670,846.342,826.671,843.532,837.638,0.000,0.000,0
1507860316.672,874.650,828.796,845.314,850.386,0.000,0.000,1
1507860316.674,865.123,830.578,845.657,843.806,0.000,0.000,0
1507860316.676,849.495,826.808,844.012,839.146,0.000,0.000,0
1507860316.678,818.035,822.970,843.190,816.527,0.000,0.000,0
1507860316.680,809.947,819.132,843.738,824.135,0.000,0.000,0
1507860316.682,805.081,819.611,842.093,825.095,0.000,0.000,0
1507860316.684,811.798,822.696,841.133,823.381,0.000,0.000,0
1507860316.686,821.736,827.425,841.545,829.070,0.000,0.000,0
1507860316.688,831.263,827.219,843.669,838.666,0.000,0.000,0
1507860316.690,844.012,827.288,843.327,840.585,0.000,0.000,0
1507860316.692,862.107,824.204,841.339,857.103,0.000,0.000,0
1507860316.694,854.567,824.409,843.395,854.979,0.000,0.000,0
1507860316.696,841.202,827.219,844.560,837.501,0.000,0.000,0
1507860316.698,822.216,829.413,842.367,818.309,0.000,0.000,0
1507860316.700,808.439,830.098,839.900,813.237,0.000,0.000,0
1507860316.702,805.972,829.002,840.654,816.527,0.000,0.000,0
1507860316.704,813.923,830.441,841.682,822.764,0.000,0.000,0
1507860316.706,816.664,824.341,839.968,826.534,0.000,0.000,0
1507860316.708,827.425,815.156,840.928,838.049,0.000,0.000,0
1507860316.710,834.348,811.935,838.803,831.675,0.000,0.000,0
1507860316.712,854.636,814.060,839.488,832.429,0.000,0.000,0
1507860316.714,863.683,819.954,840.516,841.133,0.000,0.000,0
1507860316.716,844.149,822.970,839.625,835.239,0.000,0.000,0
1507860316.718,818.378,825.163,839.146,825.095,0.000,0.000,0
1507860316.720,802.888,820.845,838.323,823.655,0.000,0.000,0
1507860316.722,803.573,820.160,837.843,823.930,0.000,0.000,0
1507860316.724,806.589,819.817,836.884,823.381,0.000,0.000,0
1507860316.726,830.784,821.462,837.021,840.174,0.000,0.000,0
1507860316.728,830.578,821.325,833.936,832.840,0.000,0.000,0
1507860316.730,838.460,819.749,833.183,832.497,0.000,0.000,0
1507860316.732,850.112,820.365,835.650,831.880,0.000,0.000,0
1507860316.734,853.539,822.216,838.871,835.307,0.000,0.000,0
1507860316.736,840.448,825.232,837.432,829.002,0.000,0.000,0
1507860316.738,828.042,824.546,836.473,824.478,0.000,0.000,0
1507860316.740,814.060,825.506,834.965,814.814,0.000,0.000,0
1507860316.742,799.049,825.986,832.086,803.779,0.000,0.000,0
1507860316.744,803.984,827.836,831.400,801.242,0.000,0.000,0
1507860316.746,828.453,826.671,835.719,819.954,0.000,0.000,0
1507860316.748,838.803,825.643,837.021,831.058,0.000,0.000,0
1507860316.750,842.230,825.643,837.295,833.388,0.000,0.000,0
1507860316.752,850.181,824.615,839.351,833.731,0.000,0.000,0
1507860316.754,851.414,820.434,839.077,834.142,0.000,0.000,0
1507860316.756,845.863,818.241,839.077,830.098,0.000,0.000,0
1507860316.758,831.126,816.116,837.432,831.195,0.000,0.000,0
1507860316.760,802.339,811.661,835.033,835.376,0.000,0.000,0
1507860316.762,791.990,811.387,834.485,826.534,0.000,0.000,0
1507860316.764,804.190,817.487,835.307,820.228,0.000,0.000,0
1507860316.766,823.587,819.543,837.021,826.740,0.000,0.000,0
1507860316.768,832.840,816.664,839.009,833.868,0.000,0.000,0
1507860316.770,843.738,812.141,840.448,833.114,0.000,0.000,0
1507860316.772,863.820,811.112,840.379,841.202,0.000,0.000,0
1507860316.774,861.353,814.128,841.133,841.202,0.000,0.000,0
1507860316.776,835.102,819.200,840.448,824.272,0.000,0.000,0
1507860316.778,818.583,826.054,840.996,812.826,0.000,0.000,0
1507860316.780,820.708,826.945,841.682,820.297,0.000,0.000,0
1507860316.782,815.225,827.699,841.613,821.462,0.000,0.000,0
1507860316.784,816.459,829.276,839.968,823.518,0.000,0.000,0
1507860316.786,824.546,828.179,837.158,824.821,0.000,0.000,0
1507860316.788,835.787,825.643,838.049,829.276,0.000,0.000,0
1507860316.790,849.495,823.244,840.859,834.622,0.000,0.000,0
1507860316.792,863.957,821.462,841.956,851.483,0.000,0.000,0
1507860316.794,860.325,822.079,841.133,842.161,0.000,0.000,0
1507860316.796,838.803,824.821,839.009,825.506,0.000,0.000,0
1507860316.798,822.559,825.849,840.516,818.720,0.000,0.000,0
1507860316.800,814.402,825.575,840.516,818.926,0.000,0.000,0
1507860316.802,812.757,823.998,840.585,822.627,0.000,0.000,0
1507860316.804,821.599,819.543,840.791,837.569,0.000,0.000,0
1507860316.806,825.506,817.007,841.133,834.485,0.000,0.000,0
1507860316.808,830.509,815.773,840.859,830.441,0.000,0.000,0
1507860316.810,846.822,819.886,842.778,834.142,0.000,0.000,0
1507860316.812,848.878,821.051,843.943,840.174,0.000,0.000,0
1507860316.814,849.290,822.490,845.588,847.576,0.000,0.000,0
1507860316.816,838.323,822.901,844.560,844.766,0.000,0.000,0
1507860316.818,822.216,826.191,842.298,834.828,0.000,0.000,0
1507860316.820,813.717,830.441,839.831,829.413,0.000,0.000,0
1507860316.822,808.782,827.836,839.420,830.852,0.000,0.000,0
1507860316.824,811.181,821.805,838.392,833.868,0.000,0.000,0
1507860316.826,832.154,817.281,839.831,852.511,0.000,0.000,0
1507860316.828,842.847,811.935,840.859,847.782,0.000,0.000,0
1507860316.830,859.091,811.455,841.613,840.654,0.000,0.000,0
1507860316.832,868.070,813.991,843.327,839.831,0.000,0.000,0
1507860316.834,856.555,817.007,842.161,832.223,0.000,0.000,0
1507860316.836,844.766,819.954,842.093,823.792,0.000,0.000,0
1507860316.838,842.504,824.821,844.423,841.339,0.000,0.000,0
1507860316.840,816.801,825.437,843.327,831.743,0.000,0.000,0
1507860316.842,800.283,826.877,841.065,817.487,0.000,0.000,0
1507860316.844,807.068,823.655,837.569,819.680,0.000,0.000,0
1507860316.846,807.548,826.191,836.473,810.153,0.000,0.000,0
1507860316.848,822.696,827.562,837.706,821.325,0.000,0.000,0
1507860316.850,840.791,827.768,840.654,831.538,0.000,0.000,0
1507860316.852,861.696,830.304,841.065,836.678,0.000,0.000,0
1507860316.854,864.848,828.933,843.327,840.174,0.000,0.000,0
1507860316.856,847.508,824.546,843.601,836.198,0.000,0.000,0
1507860316.858,822.901,823.381,840.928,825.095,0.000,0.000,0
1507860316.860,820.571,823.176,840.996,832.840,0.000,0.000,0
1507860316.862,807.274,821.531,840.722,825.506,0.000,0.000,0
1507860316.864,804.670,826.466,839.488,818.104,0.000,0.000,0
1507860316.866,815.156,830.372,839.968,820.571,0.000,0.000,0
1507860316.868,831.812,825.917,842.230,829.550,0.000,0.000,0
1507860316.870,857.377,824.409,845.794,847.508,0.000,0.000,0
1507860316.872,871.360,825.437,844.492,845.520,0.000,0.000,0
1507860316.874,868.550,826.054,842.573,839.488,0.000,0.000,0
1507860316.876,844.834,827.357,846.000,824.889,0.000,0.000,0
1507860316.878,828.111,825.232,846.274,822.764,0.000,0.000,0
1507860316.880,816.116,820.434,844.012,822.490,0.000,0.000,0
1507860316.882,806.315,817.966,840.105,818.241,0.000,0.000,0
1507860316.884,811.798,820.503,840.516,817.966,0.000,0.000,0
1507860316.886,821.256,822.353,842.573,821.188,0.000,0.000,0
1507860316.888,835.444,822.216,843.121,831.675,0.000,0.000,0
1507860316.890,851.689,820.571,843.738,841.682,0.000,0.000,0
1507860316.892,865.465,819.749,846.000,850.181,0.000,0.000,0
1507860316.894,877.323,820.640,848.536,858.611,0.000,0.000,0
1507860316.896,859.571,823.930,845.109,842.641,0.000,0.000,0
1507860316.898,837.912,828.179,844.492,829.070,0.000,0.000,0
1507860316.900,810.907,832.154,841.133,814.471,0.000,0.000,0
1507860316.902,812.552,829.755,840.516,827.562,0.000,0.000,0
1507860316.904,812.072,823.655,838.255,832.017,0.000,0.000,0
1507860316.906,830.098,823.587,839.077,837.569,0.000,0.000,0
1507860316.908,847.645,826.671,841.682,850.660,0.000,0.000,0
1507860316.910,859.639,828.522,841.819,854.019,0.000,0.000,0
1507860316.912,870.606,829.002,843.601,849.153,0.000,0.000,0
1507860316.914,865.534,826.191,841.819,846.068,0.000,0.000,0
1507860316.916,844.423,824.204,843.052,845.520,0.000,0.000,0
1507860316.918,825.575,823.450,840.722,831.469,0.000,0.000,0
1507860316.920,820.503,821.462,841.270,839.077,0.000,0.000,0
1507860316.922,810.633,821.256,840.585,827.768,0.000,0.000,0
1507860316.924,820.091,823.313,839.625,826.466,0.000,0.000,0
1507860316.926,831.606,820.914,837.295,828.659,0.000,0.000,0
1507860316.928,832.360,822.147,840.311,829.481,0.000,0.000,0
1507860316.930,854.499,824.889,840.311,843.327,0.000,0.000,0
1507860316.932,859.228,825.232,839.077,840.722,0.000,0.000,0
1507860316.934,850.181,828.042,841.887,833.457,0.000,0.000,0
1507860316.936,844.012,826.603,844.149,832.977,0.000,0.000,0
1507860316.938,841.545,821.942,845.040,841.887,0.000,0.000,0
1507860316.940,817.281,822.010,843.327,826.945,0.000,0.000,0
1507860316.942,805.218,819.474,840.516,826.808,0.000,0.000,0
1507860316.944,814.882,820.091,840.928,831.743,0.000,0.000,0
1507860316.946,817.898,818.309,841.819,825.095,0.000,0.000,0
1507860316.948,832.977,819.406,843.464,836.198,0.000,0.000,0
1507860316.950,838.529,820.914,844.149,841.407,0.000,0.000,0
1507860316.952,847.576,822.010,844.903,843.875,0.000,0.000,0
1507860316.954,857.446,822.833,845.040,842.230,0.000,0.000,0
1507860316.956,852.305,822.422,848.536,842.984,0.000,0.000,0
1507860316.958,841.339,819.200,847.439,851.894,0.000,0.000,0
1507860316.960,816.527,817.555,845.383,834.211,0.000,0.000,0
1507860316.962,802.545,819.749,841.819,819.611,0.000,0.000,0
1507860316.964,812.963,826.328,841.202,825.506,0.000,0.000,0
1507860316.966,826.671,830.509,840.996,826.534,0.000,0.000,0
1507860316.968,837.089,831.606,842.778,832.977,0.000,0.000,0
1507860316.970,853.265,834.553,843.121,839.420,0.000,0.000,0
1507860316.972,870.811,835.719,846.205,852.580,0.000,0.000,0
1507860316.974,863.752,833.045,845.726,849.632,0.000,0.000,0
1507860316.976,846.891,832.223,844.492,840.037,0.000,0.000,0
1507860316.978,823.518,830.578,843.395,819.611,0.000,0.000,0
1507860316.980,825.506,830.235,845.040,830.030,0.000,0.000,0
1507860316.982,822.353,828.453,843.395,832.429,0.000,0.000,0
1507860316.984,819.817,827.699,842.915,830.852,0.000,0.000,0
1507860316.986,825.300,824.889,841.956,826.466,0.000,0.000,0
1507860316.988,834.828,822.010,842.984,830.167,0.000,0.000,0
1507860316.990,865.534,823.450,845.109,853.813,0.000,0.000,0
1507860316.992,881.847,825.026,843.395,848.193,0.000,0.000,0
1507860316.994,872.936,825.095,843.395,840.791,0.000,0.000,0
1507860316.996,844.012,826.054,844.766,829.139,0.000,0.000,0
1507860316.998,824.067,820.023,843.121,827.425,0.000,0.000,0
1507860317.000,809.262,819.954,841.065,823.107,0.000,0.000,0
1507860317.002,805.903,822.833,840.791,823.381,0.000,0.000,0
1507860317.004,802.271,825.095,838.940,821.051,0.000,0.000,0
1507860317.006,815.910,829.207,839.557,833.045,0.000,0.000,0
1507860317.008,813.032,827.905,840.791,833.525,0.000,0.000,0
1507860317.010,830.921,824.889,842.367,843.395,0.000,0.000,0
1507860317.012,842.847,824.067,844.629,841.202,0.000,0.000,0
1507860317.014,856.555,823.244,846.617,854.567,0.000,0.000,0
1507860317.016,846.274,822.559,846.685,846.754,0.000,0.000,0
1507860317.018,829.618,823.244,845.383,827.836,0.000,0.000,0
1507860317.020,803.710,818.995,843.875,813.100,0.000,0.000,0
1507860317.022,793.429,819.063,841.819,809.330,0.000,0.000,0
1507860317.024,808.782,823.313,842.984,824.752,0.000,0.000,0
1507860317.026,813.511,825.300,842.847,823.381,0.000,0.000,0
1507860317.028,818.995,827.219,842.367,822.147,0.000,0.000,0
1507860317.030,842.093,831.538,844.218,831.675,0.000,0.000,0
1507860317.032,855.595,829.687,844.903,834.348,0.000,0.000,0
1507860317.034,851.757,826.328,846.137,836.404,0.000,0.000,0
1507860317.036,837.501,823.998,844.560,835.102,0.000,0.000,0
1507860317.038,837.569,824.067,843.327,840.859,0.000,0.000,0
1507860317.040,819.886,818.104,842.367,824.067,0.000,0.000,0
1507860317.042,804.258,814.197,840.585,808.028,0.000,0.000,0
1507860317.044,806.520,819.406,843.190,806.589,0.000,0.000,0
1507860317.046,824.821,823.107,843.806,825.026,0.000,0.000,0
1507860317.048,835.650,821.668,843.806,839.351,0.000,0.000,0
1507860317.050,846.411,827.151,842.504,838.186,0.000,0.000,0
1507860317.052,855.732,830.372,839.625,834.622,0.000,0.000,0
1507860317.054,866.425,830.167,839.077,833.799,0.000,0.000,0
1507860317.056,858.131,827.768,840.859,833.662,0.000,0.000,0
1507860317.058,843.327,826.123,839.968,838.392,0.000,0.000,0
1507860317.060,822.627,825.232,838.940,826.740,0.000,0.000,0
1507860317.062,808.165,822.147,836.815,815.979,0.000,0.000,0
1507860317.064,806.109,826.191,836.884,818.035,0.000,0.000,0
1507860317.066,815.499,827.836,836.952,823.039,0.000,0.000,0
1507860317.068,834.142,826.397,839.557,831.538,0.000,0.000,0
1507860317.070,851.209,825.849,839.488,834.828,0.000,0.000,0
1507860317.072,871.291,825.917,842.298,850.181,0.000,0.000,0
1507860317.074,870.537,825.780,843.258,845.383,0.000,0.000,0
1507860317.076,850.386,828.316,843.327,834.416,0.000,0.000,0
1507860317.078,833.731,831.058,843.190,822.147,0.000,0.000,0
1507860317.080,825.849,827.082,843.052,833.457,0.000,0.000,0
1507860317.082,818.309,821.942,840.791,835.513,0.000,0.000,0
1507860317.084,821.188,820.914,842.093,840.379,0.000,0.000,0
1507860317.086,830.235,818.309,842.093,843.464,0.000,0.000,0
1507860317.088,839.214,819.680,844.218,841.339,0.000,0.000,0
1507860317.090,849.769,820.982,844.423,840.585,0.000,0.000,0
1507860317.092,865.397,820.297,844.766,854.979,0.000,0.000,0
1507860317.094,862.998,824.683,842.504,847.508,0.000,0.000,0
1507860317.096,841.339,826.671,840.242,832.908,0.000,0.000,0
1507860317.098,830.441,829.276,842.298,829.344,0.000,0.000,0
1507860317.100,812.483,828.659,841.545,824.135,0.000,0.000,0
1507860317.102,807.960,826.808,840.379,821.051,0.000,0.000,0
1507860317.104,827.973,825.712,838.460,830.304,0.000,0.000,0
1507860317.106,833.799,825.506,839.420,827.425,0.000,0.000,0
1507860317.108,834.690,825.986,839.557,826.740,0.000,0.000,0
1507860317.110,839.968,830.715,842.230,829.687,0.000,0.000,0
1507860317.112,857.035,833.183,846.000,843.943,0.000,0.000,0
1507860317.114,860.462,827.014,845.314,847.028,0.000,0.000,0
1507860317.116,845.520,821.805,842.367,841.270,0.000,0.000,0
1507860317.118,830.372,822.764,840.311,831.880,0.000,0.000,0
1507860317.120,816.184,822.285,838.940,826.740,0.000,0.000,0
1507860317.122,808.508,822.490,840.105,826.534,0.000,0.000,0
1507860317.124,807.000,820.982,839.283,826.328,0.000,0.000,0
1507860317.126,822.285,820.365,837.843,839.214,0.000,0.000,0
1507860317.128,826.328,819.886,837.158,832.908,0.000,0.000,0
1507860317.130,840.242,820.434,838.871,828.042,0.000,0.000,0
1507860317.132,861.970,823.313,842.573,836.130,0.000,0.000,0
1507860317.134,864.232,824.272,844.629,840.242,0.000,0.000,0
1507860317.136,856.418,824.958,845.726,848.056,0.000,0.000,0
1507860317.138,828.522,822.285,842.778,831.195,0.000,0.000,0
1507860317.140,815.499,820.777,840.585,826.603,0.000,0.000,0
1507860317.142,801.242,822.833,840.928,809.810,0.000,0.000,0
1507860317.144,809.673,824.478,842.778,817.624,0.000,0.000,0
1507860317.146,824.341,824.889,843.669,829.961,0.000,0.000,0
1507860317.148,839.009,824.546,843.532,839.762,0.000,0.000,0
1507860317.150,850.935,826.328,842.367,840.242,0.000,0.000,0
1507860317.152,857.446,830.441,841.887,841.202,0.000,0.000,0
1507860317.154,858.337,833.594,840.379,840.928,0.000,0.000,0
1507860317.156,851.346,836.404,841.339,836.815,0.000,0.000,0
1507860317.158,839.283,834.690,840.242,827.562,0.000,0.000,0
1507860317.160,818.857,827.699,836.678,831.332,0.000,0.000,0
1507860317.162,805.903,825.026,836.061,821.942,0.000,0.000,0
1507860317.164,807.480,823.792,838.323,818.789,0.000,0.000,0
1507860317.166,821.599,821.942,839.009,823.724,0.000,0.000,0
1507860317.168,828.111,821.462,839.968,821.873,0.000,0.000,0
1507860317.170,848.673,822.833,840.448,838.392,0.000,0.000,0
1507860317.172,850.935,826.397,839.214,835.102,0.000,0.000,0
1507860317.174,849.906,827.219,838.871,831.675,0.000,0.000,0
1507860317.176,836.335,825.369,839.009,819.611,0.000,0.000,0
1507860317.178,827.494,823.930,838.323,813.306,0.000,0.000,0
1507860317.180,816.047,822.696,838.666,810.975,0.000,0.000,0
1507860317.182,795.828,820.571,837.364,813.785,0.000,0.000,0
1507860317.184,796.376,819.063,836.952,819.406,0.000,0.000,0
1507860317.186,811.729,818.789,835.170,820.434,0.000,0.000,0
1507860317.188,828.111,820.365,838.049,828.727,0.000,0.000,0
1507860317.190,846.000,823.244,839.762,833.868,0.000,0.000,0
1507860317.192,865.945,823.244,840.379,848.810,0.000,0.000,0
1507860317.194,857.720,824.615,839.557,839.283,0.000,0.000,0
1507860317.196,839.488,824.067,837.775,822.627,0.000,0.000,0
1507860317.198,827.631,822.696,840.037,818.926,0.000,0.000,0
1507860317.200,814.608,823.176,841.202,818.995,0.000,0.000,0
1507860317.202,809.330,824.204,840.859,818.789,0.000,0.000,0
1507860317.204,822.970,821.599,843.601,836.267,0.000,0.000,0
1507860317.206,819.063,820.023,839.968,826.534,0.000,0.000,0
1507860317.208,821.188,816.390,838.392,822.559,0.000,0.000,0
1507860317.210,835.444,819.749,841.133,817.966,0.000,0.000,0
1507860317.212,862.312,821.805,843.806,835.993,0.000,0.000,0
1507860317.214,867.247,818.857,844.903,844.697,0.000,0.000,0
1507860317.216,855.458,820.160,846.754,839.762,0.000,0.000,0
1507860317.218,839.557,822.559,846.000,825.643,0.000,0.000,0
1507860317.220,810.358,822.764,844.149,816.664,0.000,0.000,0
1507860317.222,799.323,824.889,842.093,818.378,0.000,0.000,0
1507860317.224,821.942,826.945,843.258,838.803,0.000,0.000,0
1507860317.226,827.014,826.740,841.750,831.743,0.000,0.000,0
1507860317.228,826.328,824.683,840.791,833.594,0.000,0.000,0
1507860317.230,837.980,824.821,842.504,835.719,0.000,0.000,0
1507860317.232,860.805,826.808,845.109,840.242,0.000,0.000,0
1507860317.234,866.699,828.111,845.726,835.581,0.000,0.000,0
1507860317.236,855.664,824.615,846.205,831.126,0.000,0.000,0
1507860317.238,844.834,819.337,845.520,836.747,0.000,0.000,0
1507860317.240,822.010,819.749,843.806,831.880,0.000,0.000,0
1507860317.242,804.464,822.147,841.887,822.079,0.000,0.000,0
1507860317.244,801.791,828.248,842.984,820.845,0.000,0.000,0
1507860317.246,827.014,835.787,843.052,834.416,0.000,0.000,0
1507860317.248,837.364,832.154,840.996,839.146,0.000,0.000,0
1507860317.250,849.975,825.163,843.395,839.077,0.000,0.000,0
1507860317.252,862.587,823.450,846.205,841.613,0.000,0.000,0
1507860317.254,869.029,823.998,846.617,839.762,0.000,0.000,0
1507860317.256,859.297,824.067,848.604,838.529,0.000,0.000,0
1507860317.258,846.137,822.147,847.439,843.258,0.000,0.000,0
1507860317.260,818.104,823.518,845.383,826.123,0.000,0.000,0
1507860317.262,805.629,825.575,843.327,815.293,0.000,0.000,0
1507860317.264,813.443,830.578,842.915,820.434,0.000,0.000,0
1507860317.266,824.478,833.251,841.887,823.724,0.000,0.000,0
1507860317.268,831.880,829.824,843.601,829.413,0.000,0.000,0
1507860317.270,845.314,827.631,844.766,834.690,0.000,0.000,0
1507860317.272,866.493,828.111,847.096,848.878,0.000,0.000,0
1507860317.274,867.727,827.014,847.919,842.710,0.000,0.000,0
1507860317.276,845.383,825.232,848.399,830.647,0.000,0.000,0
1507860317.278,830.372,824.615,846.411,819.954,0.000,0.000,0
1507860317.280,826.397,821.668,843.464,827.151,0.000,0.000,0
1507860317.282,815.979,822.285,840.996,821.668,0.000,0.000,0
1507860317.284,815.499,826.603,840.585,823.861,0.000,0.000,0
1507860317.286,831.332,829.755,840.996,828.179,0.000,0.000,0
1507860317.288,844.766,832.292,843.738,834.142,0.000,0.000,0
1507860317.290,849.701,829.550,843.875,837.089,0.000,0.000,0
1507860317.292,866.356,826.328,844.903,851.826,0.000,0.000,0
1507860317.294,868.550,828.316,846.205,848.947,0.000,0.000,0
1507860317.296,856.144,827.494,845.177,843.327,0.000,0.000,0
1507860317.298,841.819,827.562,843.532,836.678,0.000,0.000,0
1507860317.300,819.063,825.163,842.436,827.836,0.000,0.000,0
1507860317.302,799.118,824.958,840.242,812.346,0.000,0.000,0
1507860317.304,810.770,827.288,841.819,825.300,0.000,0.000,0
1507860317.306,834.896,828.796,843.052,843.327,0.000,0.000,0
1507860317.308,834.485,829.344,844.903,840.928,0.000,0.000,0
1507860317.310,847.576,829.207,844.972,844.081,0.000,0.000,0
1507860317.312,868.687,828.042,844.560,851.483,0.000,0.000,0
1507860317.314,873.347,827.425,845.520,854.841,0.000,0.000,0
1507860317.316,846.822,826.671,844.492,847.576,0.000,0.000,0
1507860317.318,824.546,827.082,842.298,834.965,0.000,0.000,0
1507860317.320,815.362,824.889,841.545,836.952,0.000,0.000,0
1507860317.322,810.016,818.172,841.407,839.214,0.000,0.000,0
1507860317.324,814.882,819.269,840.379,835.924,0.000,0.000,0
1507860317.326,820.914,824.135,843.601,828.179,0.000,0.000,0
1507860317.328,822.764,821.531,842.573,825.849,0.000,0.000,0
1507860317.330,839.420,821.805,841.956,840.996,0.000,0.000,0
1507860317.332,848.056,824.067,843.875,840.448,0.000,0.000,0
1507860317.334,844.423,823.587,845.794,829.070,0.000,0.000,0
1507860317.336,838.803,825.026,848.947,835.376,0.000,0.000,0
1507860317.338,834.553,827.905,846.822,834.690,0.000,0.000,0
1507860317.340,824.889,828.111,844.834,841.887,0.000,0.000,0
1507860317.342,807.411,828.727,844.081,830.852,0.000,0.000,0
1507860317.344,794.251,833.251,843.327,813.306,0.000,0.000,0
1507860317.346,816.596,836.678,845.383,822.147,0.000,0.000,0
1507860317.348,829.550,832.223,844.560,832.017,0.000,0.000,0
1507860317.350,838.323,828.179,843.806,836.130,0.000,0.000,0
1507860317.352,854.499,829.755,843.601,841.887,0.000,0.000,0
1507860317.354,863.889,834.622,847.233,842.161,0.000,0.000,0
1507860317.356,856.349,832.840,850.318,850.181,0.000,0.000,0
1507860317.358,833.457,828.453,849.084,835.307,0.000,0.000,0
1507860317.360,803.847,826.808,848.604,813.991,0.000,0.000,0
1507860317.362,802.819,831.606,848.124,816.184,0.000,0.000,0
1507860317.364,814.814,830.647,845.177,826.945,0.000,0.000,0
1507860317.366,822.422,827.562,843.943,826.603,0.000,0.000,0
1507860317.368,831.195,828.248,843.327,830.989,0.000,0.000,0
1507860317.370,845.451,829.276,844.903,838.529,0.000,0.000,0
1507860317.372,865.739,830.989,846.274,848.536,0.000,0.000,0
1507860317.374,870.537,827.425,844.629,850.455,0.000,0.000,0
1507860317.376,851.209,826.466,844.286,841.682,0.000,0.000,0
1507860317.378,822.353,826.397,843.532,816.596,0.000,0.000,0
1507860317.380,807.754,825.095,845.109,813.032,0.000,0.000,0
1507860317.382,801.517,824.821,843.121,808.234,0.000,0.000,0
1507860317.384,809.536,828.659,841.133,812.689,0.000,0.000,0
1507860317.386,827.699,832.292,840.722,819.817,0.000,0.000,0
1507860317.388,846.137,829.618,843.464,840.242,0.000,0.000,0
1507860317.390,844.834,827.905,848.193,841.613,0.000,0.000,0
1507860317.392,852.854,827.631,848.536,838.392,0.000,0.000,0
1507860317.394,853.882,829.139,848.810,832.223,0.000,0.000,0
1507860317.396,854.636,830.509,850.798,841.956,0.000,0.000,0
1507860317.398,836.335,827.905,846.479,834.142,0.000,0.000,1
1507860317.400,814.608,825.643,844.903,825.437,0.000,0.000,0
1507860317.402,805.766,822.833,844.218,825.026,0.000,0.000,0
1507860317.404,809.125,822.422,843.464,826.671,0.000,0.000,0
1507860317.406,829.276,825.643,843.395,834.828,0.000,0.000,0
1507860317.408,837.158,829.755,843.052,832.977,0.000,0.000,0
1507860317.410,849.769,830.784,843.395,840.311,0.000,0.000,0
1507860317.412,850.386,831.743,845.177,835.719,0.000,0.000,0
1507860317.414,859.297,831.606,846.548,839.351,0.000,0.000,0
1507860317.416,852.922,830.030,847.850,838.392,0.000,0.000,0
1507860317.418,835.719,825.575,847.028,830.509,0.000,0.000,0
1507860317.420,817.829,822.422,846.479,824.546,0.000,0.000,0
1507860317.422,816.116,820.571,846.274,826.945,0.000,0.000,0
1507860317.424,820.777,816.664,841.476,831.126,0.000,0.000,0
1507860317.426,834.279,822.285,840.928,824.752,0.000,0.000,0
1507860317.428,838.597,827.631,841.682,823.039,0.000,0.000,0
1507860317.430,849.290,827.905,843.806,836.815,0.000,0.000,0
1507860317.432,847.850,829.139,844.697,840.242,0.000,0.000,0
1507860317.434,853.882,832.634,847.439,839.968,0.000,0.000,0
1507860317.436,852.374,828.933,849.358,849.016,0.000,0.000,0
1507860317.438,827.014,823.587,844.766,834.553,0.000,0.000,0
1507860317.440,810.770,822.901,844.423,830.715,0.000,0.000,0
1507860317.442,794.457,823.244,841.682,818.446,0.000,0.000,0
1507860317.444,799.392,826.534,840.859,813.511,0.000,0.000,0
1507860317.446,825.917,831.469,840.585,815.568,0.000,0.000,0
1507860317.448,835.856,828.796,842.436,827.082,0.000,0.000,0
1507860317.450,849.769,826.260,845.794,836.198,0.000,0.000,0
1507860317.452,864.780,825.026,846.685,841.133,0.000,0.000,0
1507860317.454,866.630,826.328,846.068,842.024,0.000,0.000,0
1507860317.456,851.826,828.522,844.012,837.706,0.000,0.000,0
1507860317.458,845.863,827.082,843.052,842.504,0.000,0.000,0
1507860317.460,828.727,825.643,842.024,833.388,0.000,0.000,0
1507860317.462,816.733,827.836,843.121,823.998,0.000,0.000,0
1507860317.464,816.116,829.002,841.270,826.740,0.000,0.000,0
1507860317.466,812.963,831.880,840.379,826.671,0.000,0.000,0
1507860317.468,828.179,829.550,843.875,834.485,0.000,0.000,0
1507860317.470,846.274,825.849,844.766,838.186,0.000,0.000,0
1507860317.472,867.110,825.506,844.903,850.112,0.000,0.000,0
1507860317.474,875.335,829.070,846.342,850.866,0.000,0.000,0
1507860317.476,851.620,826.603,844.012,836.130,0.000,0.000,0
1507860317.478,834.828,824.204,842.024,825.780,0.000,0.000,0
1507860317.480,818.926,824.958,844.697,818.995,0.000,0.000,0
1507860317.482,804.053,826.877,842.573,818.378,0.000,0.000,0
1507860317.484,799.049,828.864,841.887,820.365,0.000,0.000,0
1507860317.486,819.269,832.634,840.448,821.119,0.000,0.000,0
1507860317.488,832.771,832.634,841.682,823.724,0.000,0.000,0
1507860317.490,855.870,832.977,843.532,843.121,0.000,0.000,0
1507860317.492,861.901,829.481,844.972,842.298,0.000,0.000,0
1507860317.494,863.409,825.506,844.423,844.834,0.000,0.000,0
1507860317.496,851.620,827.699,846.205,840.242,0.000,0.000,0
1507860317.498,841.202,827.288,844.355,831.263,0.000,0.000,0
1507860317.500,828.727,824.821,845.383,827.082,0.000,0.000,0
1507860317.502,819.817,821.256,844.423,823.039,0.000,0.000,0
1507860317.504,813.991,820.160,843.669,828.385,0.000,0.000,0
1507860317.506,828.727,819.817,844.423,847.439,0.000,0.000,0
1507860317.508,831.949,820.640,843.121,845.040,0.000,0.000,0
1507860317.510,831.126,821.188,840.859,834.142,0.000,0.000,0
1507860317.512,852.443,824.067,841.819,845.588,0.000,0.000,0
1507860317.514,868.413,826.466,843.258,855.116,0.000,0.000,0
1507860317.516,861.284,828.796,843.327,844.423,0.000,0.000,0
1507860317.518,843.601,826.808,842.230,828.796,0.000,0.000,0
1507860317.520,819.817,824.615,841.133,819.680,0.000,0.000,0
1507860317.522,809.330,818.789,838.323,826.603,0.000,0.000,0
1507860317.524,805.629,817.761,837.569,823.998,0.000,0.000,0
1507860317.526,806.657,822.764,838.049,817.144,0.000,0.000,0
1507860317.528,818.104,826.328,841.476,819.063,0.000,0.000,0
1507860317.530,843.532,825.780,843.875,838.734,0.000,0.000,0
1507860317.532,851.346,823.861,845.246,845.314,0.000,0.000,0
1507860317.534,856.966,822.147,845.040,844.766,0.000,0.000,0
1507860317.536,847.782,824.889,845.726,843.806,0.000,0.000,0
1507860317.538,836.678,827.014,846.137,836.267,0.000,0.000,0
1507860317.540,826.671,826.328,846.754,839.762,0.000,0.000,0
1507860317.542,803.847,823.176,843.464,828.042,0.000,0.000,0
1507860317.544,808.302,821.325,843.190,832.154,0.000,0.000,0
1507860317.546,816.390,823.655,841.339,824.821,0.000,0.000,0
1507860317.548,832.017,823.724,841.065,832.771,0.000,0.000,0
1507860317.550,849.495,823.792,841.819,839.762,0.000,0.000,0
1507860317.552,862.107,826.534,843.806,843.532,0.000,0.000,0
1507860317.554,860.119,827.973,844.560,841.682,0.000,0.000,0
1507860317.556,850.112,823.792,843.806,846.617,0.000,0.000,0
1507860317.558,837.089,823.587,842.778,839.625,0.000,0.000,0
1507860317.560,810.153,824.409,842.573,821.805,0.000,0.000,0
1507860317.562,811.318,828.796,843.806,825.643,0.000,0.000,0
1507860317.564,820.503,828.111,842.367,833.320,0.000,0.000,0
1507860317.566,828.453,831.538,841.887,830.989,0.000,0.000,0
1507860317.568,833.731,832.154,840.791,834.416,0.000,0.000,0
1507860317.570,847.165,833.525,842.847,839.900,0.000,0.000,0
1507860317.572,860.942,830.989,842.230,844.697,0.000,0.000,0
1507860317.574,876.980,825.506,846.205,859.708,0.000,0.000,0
1507860317.576,856.692,820.777,847.028,845.246,0.000,0.000,0
1507860317.578,842.230,820.708,843.875,843.121,0.000,0.000,0
1507860317.580,822.627,820.297,841.750,838.803,0.000,0.000,0
1507860317.582,811.044,817.898,839.762,834.622,0.000,0.000,0
1507860317.584,801.242,820.845,839.900,824.821,0.000,0.000,0
1507860317.586,817.281,820.434,840.311,823.587,0.000,0.000,0
1507860317.588,838.186,818.995,840.105,839.488,0.000,0.000,0
1507860317.590,856.281,822.833,839.900,838.940,0.000,0.000,0
1507860317.592,866.562,824.615,840.859,841.339,0.000,0.000,0
1507860317.594,866.562,824.958,843.395,846.205,0.000,0.000,0
1507860317.596,847.233,824.067,844.355,840.585,0.000,0.000,0
1507860317.597,836.541,827.768,846.274,830.098,0.000,0.000,0
1507860317.599,819.474,831.195,846.205,823.930,0.000,0.000,0
1507860317.601,811.387,830.852,844.972,825.780,0.000,0.000,0
1507860317.603,815.225,829.344,843.052,829.961,0.000,0.000,0
1507860317.605,829.961,829.687,844.286,835.719,0.000,0.000,0
1507860317.607,843.875,825.712,845.177,848.810,0.000,0.000,0
1507860317.609,850.455,826.466,845.588,845.520,0.000,0.000,0
1507860317.611,862.381,827.288,844.149,843.190,0.000,0.000,0
1507860317.613,870.057,830.647,846.274,841.202,0.000,0.000,0
1507860317.615,859.776,830.852,844.972,840.791,0.000,0.000,0
1507860317.617,836.747,832.497,843.669,833.594,0.000,0.000,0
1507860317.619,816.870,833.594,843.669,825.643,0.000,0.000,0
1507860317.621,818.995,832.703,842.915,836.815,0.000,0.000,0
1507860317.623,817.761,826.671,845.588,833.662,0.000,0.000,0
1507860317.625,820.777,822.422,845.314,828.590,0.000,0.000,0
1507860317.627,830.167,823.930,845.588,832.154,0.000,0.000,0
1507860317.629,857.446,824.958,843.875,846.137,0.000,0.000,0
1507860317.631,867.796,824.067,845.246,849.358,0.000,0.000,0
1507860317.633,866.905,824.546,848.124,847.919,0.000,0.000,0
1507860317.635,850.523,825.437,849.358,846.548,0.000,0.000,0
1507860317.637,833.457,825.575,846.137,836.747,0.000,0.000,0
1507860317.639,822.079,824.889,845.863,839.694,0.000,0.000,0
1507860317.641,807.685,825.780,844.560,827.631,0.000,0.000,0
1507860317.643,812.278,823.450,844.355,831.263,0.000,0.000,0
1507860317.645,819.749,824.272,844.697,827.631,0.000,0.000,0
1507860317.647,828.796,826.877,844.012,832.634,0.000,0.000,0
1507860317.649,843.395,829.139,842.778,839.214,0.000,0.000,0
1507860317.651,861.216,828.727,844.149,851.277,0.000,0.000,0
1507860317.653,876.569,825.369,847.850,871.497,0.000,0.000,0
1507860317.655,868.481,826.397,848.604,861.147,0.000,0.000,0
1507860317.657,846.068,830.852,845.794,833.183,0.000,0.000,0
1507860317.659,812.346,835.993,843.327,813.717,0.000,0.000,0
1507860317.661,810.016,835.650,844.766,822.147,0.000,0.000,0
1507860317.663,809.947,830.715,843.875,826.260,0.000,0.000,0
1507860317.665,819.200,827.494,842.710,828.179,0.000,0.000,0
1507860317.667,829.070,827.425,844.560,836.130,0.000,0.000,0
1507860317.669,839.146,827.425,843.875,837.021,0.000,0.000,0
1507860317.671,851.483,827.357,843.669,842.778,0.000,0.000,0
1507860317.673,869.372,827.425,845.794,859.571,0.000,0.000,0
1507860317.675,850.044,826.191,846.274,848.056,0.000,0.000,0
1507860317.677,826.534,825.506,843.601,834.485,0.000,0.000,0
1507860317.679,805.424,823.450,842.847,817.624,0.000,0.000,0
1507860317.681,800.626,820.777,842.024,813.100,0.000,0.000,0
1507860317.683,805.629,818.789,840.859,815.705,0.000,0.000,0
1507860317.685,816.596,818.035,838.871,820.228,0.000,0.000,0
1507860317.687,828.727,818.515,838.186,837.501,0.000,0.000,0
1507860317.689,835.513,821.805,839.831,836.678,0.000,0.000,0
1507860317.691,846.000,824.409,839.146,831.606,0.000,0.000,0
1507860317.693,850.181,827.973,842.641,828.316,0.000,0.000,0
1507860317.695,849.495,827.425,844.012,837.706,0.000,0.000,0
1507860317.697,837.089,824.752,842.641,828.385,0.000,0.000,0
1507860317.699,819.954,820.434,843.875,819.817,0.000,0.000,0
1507860317.701,808.508,816.938,843.327,819.749,0.000,0.000,0
1507860317.703,806.863,816.801,840.791,822.285,0.000,0.000,0
1507860317.705,817.829,819.132,839.009,826.534,0.000,0.000,0
1507860317.707,842.573,822.490,842.024,852.580,0.000,0.000,0
1507860317.709,849.016,823.039,842.161,846.891,0.000,0.000,0
1507860317.711,850.729,824.752,842.298,843.601,0.000,0.000,0
1507860317.713,859.022,826.945,845.520,850.181,0.000,0.000,0
1507860317.715,849.495,826.328,846.548,849.701,0.000,0.000,0
1507860317.717,832.566,821.325,847.096,837.912,0.000,0.000,0
1507860317.719,821.393,817.213,846.068,839.009,0.000,0.000,0
1507860317.721,811.798,817.898,844.286,825.575,0.000,0.000,0
1507860317.723,814.402,819.132,844.423,831.126,0.000,0.000,0
1507860317.725,809.125,820.777,843.601,819.680,0.000,0.000,0
1507860317.727,821.736,820.640,846.479,832.977,0.000,0.000,0
1507860317.729,842.984,820.228,845.726,847.645,0.000,0.000,0
1507860317.731,857.994,823.039,843.875,851.620,0.000,0.000,0
1507860317.733,866.562,826.603,845.863,847.028,0.000,0.000,0
1507860317.735,857.515,827.768,849.221,842.984,0.000,0.000,0
1507860317.737,840.585,827.014,849.975,837.158,0.000,0.000,0
1507860317.739,827.357,824.821,849.701,842.847,0.000,0.000,0
1507860317.741,808.988,823.587,845.931,828.659,0.000,0.000,0
1507860317.743,808.713,826.260,843.601,827.357,0.000,0.000,0
1507860317.745,816.870,831.263,841.613,823.861,0.000,0.000,0
1507860317.747,831.400,830.852,842.436,835.924,0.000,0.000,0
1507860317.749,851.414,825.163,845.726,846.137,0.000,0.000,0
1507860317.751,866.288,821.051,849.838,849.701,0.000,0.000,0
1507860317.753,876.089,820.503,850.935,857.926,0.000,0.000,0
1507860317.755,851.894,820.708,849.838,848.124,0.000,0.000,0
1507860317.757,828.453,822.627,848.056,836.335,0.000,0.000,0
1507860317.759,801.654,826.260,845.931,816.527,0.000,0.000,0
1507860317.761,805.286,826.466,845.246,826.671,0.000,0.000,0
1507860317.763,809.399,825.163,843.258,830.304,0.000,0.000,0
1507860317.765,820.982,822.490,843.875,830.235,0.000,0.000,0
1507860317.767,828.590,819.886,846.617,838.871,0.000,0.000,0
1507860317.769,843.258,820.503,845.726,842.367,0.000,0.000,0
1507860317.771,858.543,822.490,846.617,848.878,0.000,0.000,0
1507860317.773,874.924,826.191,847.576,857.172,0.000,0.000,0
1507860317.775,861.079,826.191,846.548,841.750,0.000,0.000,0
1507860317.777,841.819,828.590,843.943,831.469,0.000,0.000,0
1507860317.779,819.406,830.235,844.972,822.970,0.000,0.000,0
1507860317.781,816.870,829.687,844.697,823.107,0.000,0.000,0
1507860317.783,815.842,828.659,843.190,825.095,0.000,0.000,0
1507860317.785,819.817,826.397,843.601,823.313,0.000,0.000,0
1507860317.787,836.198,821.942,846.342,840.516,0.000,0.000,0
1507860317.789,847.645,823.313,847.096,839.420,0.000,0.000,0
1507860317.791,860.873,824.341,846.274,838.871,0.000,0.000,0
1507860317.793,864.026,827.905,846.548,833.662,0.000,0.000,0
1507860317.795,862.998,828.385,847.850,847.850,0.000,0.000,0
1507860317.797,841.887,827.562,846.342,840.037,0.000,0.000,0
1507860317.799,819.749,825.917,845.520,827.425,0.000,0.000,0
1507860317.801,814.197,822.696,843.052,817.487,0.000,0.000,0
1507860317.803,815.362,822.490,842.641,821.393,0.000,0.000,0
1507860317.805,830.372,819.474,841.202,835.650,0.000,0.000,0
1507860317.807,835.376,821.188,841.819,840.379,0.000,0.000,0
1507860317.809,842.504,824.889,841.065,836.541,0.000,0.000,0
1507860317.811,855.458,829.070,841.476,832.429,0.000,0.000,0
1507860317.813,859.022,832.086,843.738,835.856,0.000,0.000,0
1507860317.815,847.713,830.784,846.205,841.545,0.000,0.000,0
1507860317.817,832.634,828.590,844.355,832.154,0.000,0.000,0
1507860317.819,820.365,825.300,845.314,824.683,0.000,0.000,0
1507860317.821,822.970,818.995,842.847,833.731,0.000,0.000,0
1507860317.823,815.088,818.995,840.105,828.933,0.000,0.000,0
1507860317.825,810.633,821.805,837.980,820.845,0.000,0.000,0
1507860317.827,823.861,823.998,841.407,824.958,0.000,0.000,0
1507860317.829,843.395,820.503,841.270,837.021,0.000,0.000,0
1507860317.831,859.022,823.930,842.778,843.258,0.000,0.000,0
1507860317.833,869.578,829.002,843.669,841.202,0.000,0.000,0
1507860317.835,861.490,829.687,844.149,840.242,0.000,0.000,0
1507860317.837,841.339,828.864,843.395,832.497,0.000,0.000,0
1507860317.839,818.515,821.256,840.037,833.251,0.000,0.000,0
1507860317.841,812.620,820.708,837.295,825.780,0.000,0.000,0
1507860317.843,807.274,820.845,836.473,818.172,0.000,0.000,0
1507860317.845,821.256,823.450,839.283,829.755,0.000,0.000,0
1507860317.847,828.179,825.300,843.121,838.803,0.000,0.000,0
1507860317.849,840.516,830.304,842.573,842.847,0.000,0.000,0
1507860317.851,857.172,830.030,844.834,844.697,0.000,0.000,0
1507860317.853,873.073,822.696,844.834,853.676,0.000,0.000,0
1507860317.855,857.035,821.599,842.915,841.270,0.000,0.000,0
1507860317.857,841.065,820.982,839.420,832.292,0.000,0.000,0
1507860317.859,820.434,823.724,842.230,821.942,0.000,0.000,0
1507860317.861,817.624,821.462,841.065,826.191,0.000,0.000,0
1507860317.863,814.334,821.805,840.516,830.852,0.000,0.000,0
1507860317.865,820.228,827.014,839.762,834.279,0.000,0.000,0
1507860317.867,831.400,827.082,840.037,841.750,0.000,0.000,0
1507860317.869,847.370,827.905,840.516,842.436,0.000,0.000,0
1507860317.871,866.493,830.441,845.109,842.641,0.000,0.000,0
1507860317.873,878.214,827.973,845.246,844.972,0.000,0.000,0
1507860317.875,873.553,826.328,846.068,842.984,0.000,0.000,0
1507860317.877,845.109,823.107,844.286,825.986,0.000,0.000,0
1507860317.879,817.487,818.378,842.915,824.615,0.000,0.000,0
1507860317.881,809.193,816.116,839.900,819.543,0.000,0.000,0
1507860317.883,813.717,816.733,841.613,822.353,0.000,0.000,0
1507860317.885,822.833,821.942,840.928,825.026,0.000,0.000,0
1507860317.887,828.179,823.998,843.395,833.731,0.000,0.000,0
1507860317.889,845.451,823.998,843.669,846.342,0.000,0.000,0
1507860317.891,861.079,828.453,843.327,845.931,0.000,0.000,0
1507860317.893,862.724,832.154,843.669,829.961,0.000,0.000,0
1507860317.895,853.950,829.207,844.560,832.154,0.000,0.000,0
1507860317.897,831.675,824.546,843.258,829.413,0.000,0.000,0
1507860317.899,811.318,822.010,839.625,821.942,0.000,0.000,0
1507860317.901,803.984,823.244,837.021,816.321,0.000,0.000,0
1507860317.903,813.443,822.353,838.666,827.905,0.000,0.000,0
1507860317.905,814.471,819.954,837.158,822.079,0.000,0.000,0
1507860317.907,823.587,818.857,839.009,825.095,0.000,0.000,0
1507860317.909,834.896,821.805,842.367,825.437,0.000,0.000,0
1507860317.911,851.072,822.970,845.863,840.791,0.000,0.000,0
1507860317.913,860.667,824.821,846.411,845.177,0.000,0.000,0
1507860317.915,855.527,823.518,847.508,844.972,0.000,0.000,0
1507860317.917,841.956,824.821,845.451,836.061,0.000,0.000,0
1507860317.919,820.640,820.571,842.984,827.288,0.000,0.000,0
1507860317.921,810.290,818.241,840.379,825.506,0.000,0.000,0
1507860317.923,815.156,816.596,840.242,840.585,0.000,0.000,0
1507860317.925,827.357,816.184,843.875,838.255,0.000,0.000,0
1507860317.927,835.307,815.705,844.560,838.597,0.000,0.000,0
1507860317.929,849.564,820.640,846.548,839.831,0.000,0.000,0
1507860317.931,858.748,824.341,845.520,847.713,0.000,0.000,0
1507860317.933,862.107,827.631,843.875,851.552,0.000,0.000,0
1507860317.935,849.975,828.522,845.177,845.383,0.000,0.000,0
1507860317.937,844.286,827.014,845.040,846.617,0.000,0.000,0
1507860317.939,816.321,823.107,842.915,827.699,0.000,0.000,0
1507860317.941,815.499,821.942,843.258,830.304,0.000,0.000,0
1507860317.943,806.863,821.462,839.900,819.474,0.000,0.000,0
1507860317.945,827.357,823.655,839.831,826.328,0.000,0.000,0
1507860317.947,829.139,824.615,839.214,829.481,0.000,0.000,0
1507860317.949,826.877,824.958,839.214,820.023,0.000,0.000,0
1507860317.951,846.617,823.381,841.407,825.369,0.000,0.000,0
1507860317.953,863.683,821.873,843.943,833.799,0.000,0.000,0
1507860317.955,865.602,820.777,846.959,850.798,0.000,0.000,0
1507860317.957,843.121,823.587,846.548,837.158,0.000,0.000,0
1507860317.959,812.072,822.490,842.367,816.664,0.000,0.000,0
1507860317.961,811.524,824.409,841.956,817.281,0.000,0.000,0
1507860317.963,812.415,823.313,841.202,824.958,0.000,0.000,0
1507860317.965,819.406,823.244,841.270,831.263,0.000,0.000,0
1507860317.967,832.154,822.696,841.750,836.610,0.000,0.000,0
1507860317.969,846.754,823.313,842.847,841.750,0.000,0.000,0
1507860317.971,867.453,824.135,843.258,858.337,0.000,0.000,0
1507860317.973,868.275,825.917,843.601,849.632,0.000,0.000,0
1507860317.975,855.664,823.655,843.190,837.638,0.000,0.000,0
1507860317.977,844.355,824.478,842.847,822.559,0.000,0.000,0
1507860317.979,828.796,822.285,840.996,823.244,0.000,0.000,0
1507860317.981,811.866,820.708,838.597,819.132,0.000,0.000,0
1507860317.983,804.190,819.886,837.912,820.297,0.000,0.000,0
1507860317.985,813.169,823.518,840.174,824.546,0.000,0.000,0
1507860317.987,825.026,824.889,841.270,833.183,0.000,0.000,0
1507860317.989,845.726,823.313,841.133,846.137,0.000,0.000,0
1507860317.991,855.390,824.067,844.355,848.399,0.000,0.000,0
1507860317.993,852.580,824.752,845.451,833.045,0.000,0.000,0
1507860317.995,856.418,823.655,846.891,836.884,0.000,0.000,0
1507860317.997,845.520,814.814,843.464,829.961,0.000,0.000,0
1507860317.999,824.135,814.471,843.121,827.151,0.000,0.000,0
1507860318.001,812.620,817.350,838.871,822.833,0.000,0.000,0
1507860318.003,825.437,821.668,839.351,836.541,0.000,0.000,0
1507860318.005,823.998,822.216,835.856,830.989,0.000,0.000,0
1507860318.007,826.808,823.381,836.541,834.828,0.000,0.000,0
1507860318.009,834.279,828.385,838.666,826.328,0.000,0.000,0
1507860318.011,856.761,830.372,841.956,837.775,0.000,0.000,0
1507860318.013,864.232,830.647,841.750,839.900,0.000,0.000,0
1507860318.015,852.854,830.509,841.887,840.311,0.000,0.000,0
1507860318.017,845.177,829.413,840.654,836.815,0.000,0.000,0
1507860318.019,835.719,826.808,843.190,837.843,0.000,0.000,0
1507860318.021,827.562,819.200,838.940,840.791,0.000,0.000,0
1507860318.023,814.265,816.459,834.690,834.896,0.000,0.000,0
1507860318.025,807.206,821.462,834.828,819.406,0.000,0.000,0
1507860318.027,835.102,821.805,840.242,842.778,0.000,0.000,0
1507860318.029,855.527,819.886,840.174,850.181,0.000,0.000,0
1507860318.031,854.979,823.587,839.557,831.538,0.000,0.000,0
1507860318.033,862.175,828.522,842.367,832.977,0.000,0.000,0
1507860318.035,855.047,825.506,844.492,836.061,0.000,0.000,0
1507860318.037,844.766,824.478,844.629,843.121,0.000,0.000,0
1507860318.039,810.838,821.051,842.436,831.469,0.000,0.000,0
1507860318.041,794.251,818.309,839.283,816.459,0.000,0.000,0
1507860318.043,795.759,822.833,840.585,807.617,0.000,0.000,0
1507860318.045,818.995,822.970,840.996,819.749,0.000,0.000,0
1507860318.047,824.958,819.680,840.654,822.696,0.000,0.000,0
1507860318.049,838.734,821.531,842.573,829.824,0.000,0.000,0
1507860318.051,855.527,827.219,844.766,834.485,0.000,0.000,1
1507860318.053,872.388,831.058,845.451,847.370,0.000,0.000,0
1507860318.055,850.386,828.316,844.286,840.585,0.000,0.000,0
1507860318.057,830.784,827.082,844.012,831.469,0.000,0.000,0
1507860318.059,808.782,829.002,842.298,815.430,0.000,0.000,0
1507860318.061,809.673,827.699,840.311,823.107,0.000,0.000,0
1507860318.063,810.153,823.930,840.448,822.353,0.000,0.000,0
1507860318.065,822.559,825.095,839.420,821.325,0.000,0.000,0
1507860318.067,834.485,825.300,840.448,830.441,0.000,0.000,0
1507860318.069,844.355,823.381,842.847,839.557,0.000,0.000,0
1507860318.071,853.745,821.942,845.520,842.024,0.000,0.000,0
1507860318.073,871.634,825.986,846.548,854.088,0.000,0.000,0
1507860318.075,857.926,830.235,845.246,841.407,0.000,0.000,0
1507860318.077,843.738,831.195,841.339,831.469,0.000,0.000,0
1507860318.079,822.970,832.977,840.105,822.147,0.000,0.000,0
1507860318.081,812.826,830.304,839.077,821.393,0.000,0.000,0
1507860318.083,814.197,827.219,840.859,824.821,0.000,0.000,0
1507860318.085,828.179,827.905,842.778,824.204,0.000,0.000,0
1507860318.087,825.917,823.518,840.379,821.051,0.000,0.000,0
1507860318.089,843.601,824.889,840.928,831.538,0.000,0.000,0
1507860318.091,852.168,828.179,843.121,826.123,0.000,0.000,0
1507860318.093,859.365,830.441,846.685,836.473,0.000,0.000,0
1507860318.095,850.592,825.232,846.548,841.270,0.000,0.000,0
1507860318.097,838.529,821.805,844.834,827.425,0.000,0.000,0
1507860318.099,816.733,818.378,844.697,819.611,0.000,0.000,0
1507860318.101,802.956,814.539,841.682,814.951,0.000,0.000,0
1507860318.103,803.779,816.253,842.984,820.297,0.000,0.000,0
1507860318.105,814.471,815.842,841.819,820.365,0.000,0.000,0
1507860318.107,830.647,817.281,843.669,835.513,0.000,0.000,0
1507860318.109,835.581,820.845,843.738,829.207,0.000,0.000,0
1507860318.111,852.237,824.067,846.617,837.706,0.000,0.000,0
1507860318.113,864.026,829.344,847.645,840.585,0.000,0.000,0
1507860318.115,857.240,832.292,848.399,843.258,0.000,0.000,0
1507860318.117,838.323,830.509,843.738,829.618,0.000,0.000,0
1507860318.119,825.643,828.316,844.012,828.385,0.000,0.000,0
1507860318.121,810.907,823.381,839.831,818.995,0.000,0.000,0
1507860318.123,799.255,823.930,839.283,818.857,0.000,0.000,0
1507860318.125,799.049,827.905,839.488,810.907,0.000,0.000,0
1507860318.127,824.409,830.647,844.012,833.388,0.000,0.000,0
1507860318.129,837.295,830.441,843.052,841.476,0.000,0.000,0
1507860318.131,852.991,828.316,842.367,842.504,0.000,0.000,0
1507860318.133,864.437,830.098,842.504,838.117,0.000,0.000,0
1507860318.135,859.502,828.042,844.081,836.130,0.000,0.000,0
1507860318.137,845.726,826.534,845.383,830.098,0.000,0.000,0
1507860318.139,832.086,820.708,846.891,839.762,0.000,0.000,0
1507860318.141,814.334,818.378,845.109,829.070,0.000,0.000,0
1507860318.143,806.931,817.418,842.641,822.627,0.000,0.000,0
1507860318.145,821.805,818.378,841.202,830.647,0.000,0.000,0
1507860318.147,828.864,819.954,840.585,840.585,0.000,0.000,0
1507860318.149,841.270,821.462,840.722,842.093,0.000,0.000,0
1507860318.151,857.035,823.930,843.532,841.202,0.000,0.000,0
1507860318.153,873.759,827.768,847.508,850.112,0.000,0.000,0
1507860318.155,856.349,829.276,846.000,839.283,0.000,0.000,0
1507860318.157,839.694,829.002,842.230,835.513,0.000,0.000,0
1507860318.159,811.592,828.796,840.791,814.608,0.000,0.000,0
1507860318.161,816.253,827.631,842.641,824.341,0.000,0.000,0
1507860318.163,814.197,822.147,841.133,826.466,0.000,0.000,0
1507860318.165,813.991,825.712,839.283,822.833,0.000,0.000,0
1507860318.167,821.531,829.824,839.214,826.054,0.000,0.000,0
1507860318.169,840.311,834.622,841.750,834.074,0.000,0.000,0
1507860318.171,855.870,832.566,842.641,842.367,0.000,0.000,0
1507860318.173,870.126,827.494,843.875,852.580,0.000,0.000,0
1507860318.175,855.664,827.151,844.355,847.439,0.000,0.000,0
1507860318.177,834.142,826.260,845.177,834.416,0.000,0.000,0
1507860318.179,821.736,822.901,845.657,829.413,0.000,0.000,0
1507860318.181,815.499,821.805,844.697,828.453,0.000,0.000,0
1507860318.183,811.935,822.559,845.246,835.033,0.000,0.000,0
1507860318.185,822.901,824.067,845.383,833.525,0.000,0.000,0
1507860318.187,840.311,824.615,847.782,849.632,0.000,0.000,0
1507860318.189,841.339,827.082,847.508,843.806,0.000,0.000,0
1507860318.191,852.031,825.095,845.931,843.052,0.000,0.000,0
1507860318.193,861.147,824.409,846.411,836.473,0.000,0.000,0
1507860318.195,865.123,825.643,846.822,846.137,0.000,0.000,0
1507860318.197,846.754,826.740,844.629,832.017,0.000,0.000,0
1507860318.199,819.337,826.740,844.834,821.668,0.000,0.000,0
1507860318.201,807.137,823.930,842.847,817.075,0.000,0.000,0
1507860318.203,808.988,821.736,842.573,821.805,0.000,0.000,0
1507860318.205,822.422,824.341,841.202,837.158,0.000,0.000,0
1507860318.207,824.889,826.740,840.654,835.650,0.000,0.000,0
1507860318.209,827.905,830.098,841.407,834.622,0.000,0.000,0
1507860318.211,844.629,833.457,843.258,844.903,0.000,0.000,0
1507860318.213,856.418,832.223,843.327,846.617,0.000,0.000,0
1507860318.215,856.007,829.481,841.887,844.218,0.000,0.000,0
1507860318.217,844.286,827.288,842.024,833.936,0.000,0.000,0
1507860318.219,820.091,829.070,843.052,819.337,0.000,0.000,0
1507860318.221,804.875,825.780,840.448,812.894,0.000,0.000,0
1507860318.223,809.536,818.309,838.460,825.917,0.000,0.000,0
1507860318.225,824.958,818.583,840.037,825.163,0.000,0.000,0
1507860318.227,832.154,825.232,842.230,824.752,0.000,0.000,0
1507860318.229,850.181,828.727,842.298,833.251,0.000,0.000,0
1507860318.231,859.571,829.687,842.367,836.335,0.000,0.000,0
1507860318.233,862.244,833.594,842.230,835.513,0.000,0.000,0
1507860318.235,858.474,833.045,844.972,836.678,0.000,0.000,0
1507860318.237,848.741,827.836,846.548,831.538,0.000,0.000,0
1507860318.239,842.161,819.954,845.246,841.065,0.000,0.000,0
1507860318.241,831.332,817.281,842.230,829.070,0.000,0.000,0
1507860318.243,820.434,821.051,839.488,820.365,0.000,0.000,0
1507860318.245,826.534,826.808,837.295,825.163,0.000,0.000,0
1507860318.247,831.949,826.808,836.473,833.594,0.000,0.000,0
1507860318.249,845.177,827.768,840.996,838.734,0.000,0.000,0
1507860318.251,857.035,829.550,842.984,841.613,0.000,0.000,0
1507860318.253,875.061,830.647,842.093,850.798,0.000,0.000,0
1507860318.255,867.590,832.771,844.149,846.342,0.000,0.000,0
1507860318.257,839.146,834.074,842.367,821.188,0.000,0.000,0
1507860318.259,821.325,834.828,844.081,816.801,0.000,0.000,0
1507860318.261,822.353,830.578,841.819,828.727,0.000,0.000,0
1507860318.263,821.531,822.970,841.133,831.675,0.000,0.000,0
1507860318.265,828.179,826.877,839.900,831.538,0.000,0.000,0
1507860318.267,838.871,827.768,841.133,835.033,0.000,0.000,0
1507860318.269,848.467,829.550,843.190,835.581,0.000,0.000,0
1507860318.271,869.578,828.042,844.355,852.374,0.000,0.000,0
1507860318.273,874.787,825.780,844.492,846.548,0.000,0.000,0
1507860318.275,858.543,825.849,844.697,839.420,0.000,0.000,0
1507860318.277,843.190,828.042,845.931,835.856,0.000,0.000,0
1507860318.279,834.211,825.780,844.560,834.828,0.000,0.000,0
1507860318.281,824.067,825.986,844.286,829.824,0.000,0.000,0
1507860318.283,818.789,823.313,842.436,833.045,0.000,0.000,0
1507860318.285,819.817,824.272,843.052,835.856,0.000,0.000,0
1507860318.287,840.722,824.615,847.028,848.878,0.000,0.000,0
1507860318.289,847.302,822.079,847.165,840.379,0.000,0.000,0
1507860318.291,854.910,823.792,846.617,842.710,0.000,0.000,0
1507860318.293,855.527,826.740,847.096,833.183,0.000,0.000,0
1507860318.295,852.511,823.381,848.330,839.762,0.000,0.000,0
1507860318.297,837.912,824.478,848.604,835.102,0.000,0.000,0
1507860318.299,827.014,827.357,848.810,831.195,0.000,0.000,0
1507860318.301,823.724,825.643,845.726,825.575,0.000,0.000,0
1507860318.303,819.886,824.341,845.726,830.098,0.000,0.000,0
1507860318.305,825.232,826.671,846.548,837.638,0.000,0.000,0
1507860318.307,837.364,825.506,844.012,847.233,0.000,0.000,0
1507860318.309,848.467,827.905,843.601,841.476,0.000,0.000,0
1507860318.311,856.761,829.893,847.508,840.791,0.000,0.000,0
1507860318.313,863.957,829.207,849.016,843.601,0.000,0.000,0
1507860318.315,857.035,827.973,849.769,841.750,0.000,0.000,0
1507860318.317,851.140,830.098,849.564,831.675,0.000,0.000,0
1507860318.319,843.121,829.893,846.342,831.058,0.000,0.000,0
1507860318.321,821.873,826.328,842.778,823.381,0.000,0.000,0
1507860318.323,821.599,819.269,843.464,833.525,0.000,0.000,0
1507860318.325,821.393,815.910,842.710,827.357,0.000,0.000,0
1507860318.327,820.708,813.306,842.504,828.111,0.000,0.000,0
1507860318.329,835.444,812.278,843.327,835.307,0.000,0.000,0
1507860318.331,857.172,817.555,847.987,843.669,0.000,0.000,0
1507860318.333,866.630,823.792,849.838,845.040,0.000,0.000,0
1507860318.335,852.854,827.082,847.028,840.996,0.000,0.000,0
1507860318.337,838.255,829.207,846.205,834.896,0.000,0.000,0
1507860318.339,826.123,827.973,845.726,833.114,0.000,0.000,0
1507860318.341,807.206,825.163,843.121,819.132,0.000,0.000,0
1507860318.343,817.350,821.942,842.298,834.485,0.000,0.000,0
1507860318.345,827.631,822.490,841.270,830.921,0.000,0.000,0
1507860318.347,832.086,824.204,842.847,826.740,0.000,0.000,0
1507860318.349,847.508,824.958,844.834,836.473,0.000,0.000,0
1507860318.351,853.196,824.683,847.302,843.532,0.000,0.000,0
1507860318.353,862.518,822.696,846.274,854.841,0.000,0.000,0
1507860318.355,853.813,822.764,846.205,852.100,0.000,0.000,0
1507860318.357,829.550,823.792,843.669,833.251,0.000,0.000,0
1507860318.359,815.773,826.260,844.834,827.425,0.000,0.000,0
1507860318.361,819.132,828.316,845.726,836.473,0.000,0.000,0
1507860318.363,815.499,828.042,844.903,828.042,0.000,0.000,0
1507860318.365,821.256,826.054,843.052,824.752,0.000,0.000,0
1507860318.367,828.042,820.434,842.093,830.784,0.000,0.000,0
1507860318.369,840.311,812.963,841.339,837.569,0.000,0.000,0
1507860318.371,864.369,808.165,843.943,855.047,0.000,0.000,0
1507860318.373,872.868,812.209,846.822,846.754,0.000,0.000,0
1507860318.375,856.075,817.966,845.246,831.400,0.000,0.000,0
1507860318.377,837.364,823.107,845.726,825.369,0.000,0.000,0
1507860318.379,825.780,823.724,845.520,827.014,0.000,0.000,0
1507860318.381,816.047,822.353,844.012,822.559,0.000,0.000,0
1507860318.383,814.265,820.708,842.641,825.437,0.000,0.000,0
1507860318.385,823.724,821.873,841.682,826.534,0.000,0.000,0
1507860318.387,835.307,819.954,842.504,842.161,0.000,0.000,0
1507860318.389,838.529,819.611,843.258,841.133,0.000,0.000,0
1507860318.391,846.959,823.930,842.778,841.202,0.000,0.000,0
1507860318.393,858.885,825.849,842.298,842.641,0.000,0.000,0
1507860318.395,845.863,829.893,842.710,834.622,0.000,0.000,0
1507860318.397,831.949,828.590,844.560,832.292,0.000,0.000,0
1507860318.399,818.857,827.905,845.246,826.945,0.000,0.000,0
1507860318.401,807.960,824.615,845.109,824.752,0.000,0.000,0
1507860318.403,806.452,820.914,844.286,828.796,0.000,0.000,0
1507860318.405,823.039,821.325,844.903,836.335,0.000,0.000,0
1507860318.407,826.945,821.325,843.806,831.675,0.000,0.000,0
1507860318.409,832.360,818.926,841.819,824.272,0.000,0.000,0
1507860318.411,849.153,820.503,843.395,832.703,0.000,0.000,0
1507860318.413,861.079,818.720,844.834,837.364,0.000,0.000,0
1507860318.415,854.841,817.624,847.508,844.697,0.000,0.000,0
1507860318.417,839.900,818.720,846.205,838.460,0.000,0.000,0
1507860318.419,825.575,819.817,845.383,835.102,0.000,0.000,0
1507860318.421,802.476,818.446,842.093,826.328,0.000,0.000,0
1507860318.423,799.255,817.692,841.339,824.204,0.000,0.000,0
1507860318.425,810.153,821.119,841.065,816.664,0.000,0.000,0
1507860318.427,825.026,823.655,842.367,826.945,0.000,0.000,0
1507860318.429,836.678,823.176,843.806,832.771,0.000,0.000,0
1507860318.431,845.109,823.450,845.588,831.126,0.000,0.000,0
1507860318.433,853.265,826.603,846.685,831.332,0.000,0.000,0
1507860318.435,852.922,825.712,846.274,834.005,0.000,0.000,0
1507860318.437,849.427,822.010,845.246,836.747,0.000,0.000,0
1507860318.439,824.067,822.285,842.573,822.764,0.000,0.000,0
1507860318.441,809.604,823.792,841.750,821.051,0.000,0.000,0
1507860318.443,794.046,823.930,843.806,816.664,0.000,0.000,0
1507860318.445,809.742,824.546,845.451,822.696,0.000,0.000,0
1507860318.447,819.749,825.917,846.274,823.518,0.000,0.000,0
1507860318.449,828.179,824.546,844.423,824.409,0.000,0.000,0
1507860318.451,844.629,822.285,843.464,827.494,0.000,0.000,0
1507860318.453,855.321,824.615,844.012,831.949,0.000,0.000,0
1507860318.455,852.922,822.010,842.710,841.819,0.000,0.000,0
1507860318.457,835.307,822.285,846.479,831.812,0.000,0.000,0
1507860318.459,815.156,825.917,846.548,820.434,0.000,0.000,0
1507860318.461,808.028,829.481,846.068,820.160,0.000,0.000,0
1507860318.463,814.471,827.836,845.451,822.559,0.000,0.000,0
1507860318.465,828.727,829.618,845.657,826.534,0.000,0.000,0
1507860318.467,834.142,830.921,846.342,835.719,0.000,0.000,0
1507860318.469,849.632,830.647,847.439,853.471,0.000,0.000,0
1507860318.471,861.558,832.154,849.084,853.539,0.000,0.000,0
1507860318.473,854.979,830.715,846.137,837.295,0.000,0.000,0
1507860318.475,850.523,832.154,847.233,832.634,0.000,0.000,0
1507860318.477,843.052,829.413,845.863,835.581,0.000,0.000,0
1507860318.479,823.313,829.413,844.629,823.381,0.000,0.000,0
1507860318.481,812.826,825.917,845.588,819.749,0.000,0.000,0
1507860318.483,814.471,821.873,846.822,821.256,0.000,0.000,0
1507860318.485,822.901,825.026,846.548,823.039,0.000,0.000,0
1507860318.487,828.727,826.808,847.508,833.457,0.000,0.000,0
1507860318.489,846.274,826.397,846.617,848.878,0.000,0.000,0
1507860318.491,862.107,828.248,845.657,847.850,0.000,0.000,0
1507860318.493,862.518,831.538,846.342,835.719,0.000,0.000,0
1507860318.495,857.446,832.977,846.411,837.501,0.000,0.000,0
1507860318.497,847.233,829.139,844.149,832.223,0.000,0.000,0
1507860318.499,827.562,823.724,845.246,829.687,0.000,0.000,0
1507860318.501,813.717,820.160,846.068,828.111,0.000,0.000,0
1507860318.503,821.805,816.184,847.233,842.161,0.000,0.000,0
1507860318.505,818.926,816.047,843.121,834.211,0.000,0.000,0
1507860318.507,827.631,824.135,843.395,840.242,0.000,0.000,0
1507860318.509,847.096,829.139,846.685,846.617,0.000,0.000,0
1507860318.511,858.337,831.538,845.657,848.193,0.000,0.000,0
1507860318.513,860.530,835.239,844.903,839.488,0.000,0.000,0
1507860318.515,859.776,836.815,845.931,839.146,0.000,0.000,0
1507860318.517,851.072,834.759,845.520,835.170,0.000,0.000,0
1507860318.519,831.195,830.235,843.258,828.933,0.000,0.000,0
1507860318.521,827.425,823.381,842.915,841.545,0.000,0.000,0
1507860318.523,814.128,817.144,842.984,835.856,0.000,0.000,0
1507860318.525,816.047,817.761,842.710,829.550,0.000,0.000,0
1507860318.527,829.481,823.724,842.915,835.444,0.000,0.000,0
1507860318.529,850.729,826.740,844.081,846.342,0.000,0.000,0
1507860318.531,868.824,826.328,844.218,851.140,0.000,0.000,0
1507860318.533,873.964,824.752,845.657,850.798,0.000,0.000,0
1507860318.535,863.820,824.478,849.427,850.660,0.000,0.000,0
1507860318.537,853.745,822.970,849.016,854.499,0.000,0.000,0
1507860318.539,828.179,825.163,843.875,836.884,0.000,0.000,0
1507860318.541,810.358,827.905,842.161,820.708,0.000,0.000,0
1507860318.543,806.931,829.550,844.423,817.487,0.000,0.000,0
1507860318.545,822.285,826.397,845.588,826.945,0.000,0.000,0
1507860318.547,837.226,825.780,846.891,831.400,0.000,0.000,0
1507860318.549,850.592,824.821,846.617,836.952,0.000,0.000,0
1507860318.551,858.680,824.135,846.754,840.996,0.000,0.000,0
1507860318.553,877.666,829.344,848.673,851.277,0.000,0.000,0
1507860318.555,864.026,829.139,846.342,842.161,0.000,0.000,0
1507860318.557,851.483,832.154,844.492,837.980,0.000,0.000,0
1507860318.559,820.708,835.650,844.218,823.039,0.000,0.000,0
1507860318.561,814.334,833.114,844.286,830.167,0.000,0.000,0
1507860318.563,806.109,829.070,845.040,829.139,0.000,0.000,0
1507860318.565,816.047,825.575,845.794,829.070,0.000,0.000,0
1507860318.567,832.086,826.328,845.246,833.388,0.000,0.000,0
1507860318.569,844.423,826.877,843.327,838.871,0.000,0.000,0
1507860318.571,873.005,827.219,842.573,856.898,0.000,0.000,0
1507860318.573,868.275,822.696,844.012,849.358,0.000,0.000,0
1507860318.575,855.527,821.599,845.726,841.613,0.000,0.000,0
1507860318.577,841.613,826.671,847.439,831.126,0.000,0.000,0
1507860318.579,831.743,825.780,845.177,824.889,0.000,0.000,0
1507860318.581,818.309,822.696,841.613,820.503,0.000,0.000,0
1507860318.583,811.592,822.079,841.270,819.817,0.000,0.000,0
1507860318.585,822.490,823.518,841.202,829.618,0.000,0.000,0
1507860318.587,832.292,823.313,840.996,833.868,0.000,0.000,0
1507860318.589,842.024,820.503,843.669,837.638,0.000,0.000,0
1507860318.591,846.685,814.608,842.641,837.226,0.000,0.000,0
1507860318.593,865.808,816.664,846.205,851.826,0.000,0.000,0
1507860318.595,864.026,819.817,846.754,851.346,0.000,0.000,0
1507860318.597,851.346,826.328,846.959,845.246,0.000,0.000,0
1507860318.599,831.332,829.276,845.177,833.936,0.000,0.000,0
1507860318.601,817.350,827.014,842.367,830.030,0.000,0.000,0
1507860318.603,815.499,825.986,842.915,835.581,0.000,0.000,0
1507860318.605,823.244,825.300,842.778,836.267,0.000,0.000,0
1507860318.607,836.198,825.849,841.819,839.488,0.000,0.000,0
1507860318.609,845.109,825.437,844.766,838.734,0.000,0.000,0
1507860318.611,860.805,820.365,844.697,846.959,0.000,0.000,0
1507860318.613,864.369,820.503,844.834,845.246,0.000,0.000,0
1507860318.615,857.652,822.422,845.383,838.940,0.000,0.000,0
1507860318.617,847.302,825.232,843.464,836.541,0.000,0.000,0
1507860318.619,837.089,823.861,842.504,843.121,0.000,0.000,0
1507860318.621,814.471,818.583,841.133,833.868,0.000,0.000,0
1507860318.623,803.984,813.854,841.339,818.446,0.000,0.000,0
1507860318.625,812.346,818.241,839.900,810.358,0.000,0.000,0
1507860318.627,832.017,821.599,840.928,829.961,0.000,0.000,0
1507860318.629,845.177,823.998,840.791,835.924,0.000,0.000,0
1507860318.631,860.530,827.425,840.791,840.516,0.000,0.000,0
1507860318.633,868.481,829.207,841.202,841.682,0.000,0.000,0
1507860318.635,859.502,828.727,842.504,843.943,0.000,0.000,0
1507860318.637,846.548,825.712,843.875,839.146,0.000,0.000,0
1507860318.639,835.033,820.708,842.024,841.750,0.000,0.000,0
1507860318.641,813.237,817.213,840.791,828.933,0.000,0.000,0
1507860318.643,814.608,814.334,840.859,833.525,0.000,0.000,0
1507860318.645,826.603,813.100,841.065,836.473,0.000,0.000,0
1507860318.647,824.409,814.814,841.270,831.126,0.000,0.000,0
1507860318.649,828.590,820.297,841.545,821.325,0.000,0.000,0
1507860318.651,864.506,825.986,844.149,843.395,0.000,0.000,0
1507860318.653,872.388,827.014,844.492,844.218,0.000,0.000,0
1507860318.655,859.708,826.808,846.342,838.460,0.000,0.000,0
1507860318.657,833.936,827.288,847.302,823.724,0.000,0.000,0
1507860318.659,827.425,827.014,846.959,826.534,0.000,0.000,0
1507860318.661,821.325,824.752,843.601,829.139,0.000,0.000,0
1507860318.663,817.761,823.107,842.573,831.195,0.000,0.000,0
1507860318.665,823.930,822.490,841.545,829.344,0.000,0.000,0
1507860318.667,833.731,825.232,840.722,832.908,0.000,0.000,0
1507860318.669,848.262,825.917,840.859,842.573,0.000,0.000,0
1507860318.671,862.038,822.490,841.476,846.205,0.000,0.000,0
1507860318.673,876.775,822.285,841.819,855.938,0.000,0.000,0
1507860318.675,869.441,823.861,843.052,858.543,0.000,0.000,0
1507860318.677,848.467,828.727,842.367,846.548,0.000,0.000,0
1507860318.679,819.886,830.647,840.174,824.409,0.000,0.000,0
1507860318.681,805.081,829.413,839.009,816.184,0.000,0.000,0
1507860318.683,811.798,824.821,839.968,827.288,0.000,0.000,0
1507860318.685,814.265,818.241,836.815,825.232,0.000,0.000,0
1507860318.687,819.611,818.172,839.557,828.864,0.000,0.000,0
1507860318.689,831.538,822.490,842.573,829.139,0.000,0.000,0
1507860318.691,852.031,826.328,843.464,836.747,0.000,0.000,1
1507860318.693,866.082,826.603,844.629,837.501,0.000,0.000,0
1507860318.695,859.022,824.135,844.081,837.843,0.000,0.000,0
1507860318.697,839.077,825.026,844.012,832.429,0.000,0.000,0
1507860318.699,826.534,823.381,842.504,827.288,0.000,0.000,0
1507860318.701,815.842,820.845,842.093,827.973,0.000,0.000,0
1507860318.703,811.524,820.160,842.093,829.755,0.000,0.000,0
1507860318.705,826.740,824.067,842.710,840.654,0.000,0.000,0
1507860318.707,833.525,826.877,843.190,838.597,0.000,0.000,0
1507860318.709,834.965,825.506,845.383,838.871,0.000,0.000,0
1507860318.711,854.156,826.534,847.645,847.782,0.000,0.000,0
1507860318.713,869.646,828.727,847.645,849.769,0.000,0.000,0
1507860318.715,870.263,827.699,848.467,858.885,0.000,0.000,0
1507860318.717,854.156,825.849,849.701,850.660,0.000,0.000,0
1507860318.719,843.532,825.369,849.221,848.536,0.000,0.000,0
1507860318.721,830.030,827.562,848.056,842.641,0.000,0.000,0
1507860318.723,813.785,828.179,848.399,832.360,0.000,0.000,0
1507860318.725,818.309,827.631,846.342,829.413,0.000,0.000,0
1507860318.727,826.191,828.248,847.645,830.989,0.000,0.000,0
1507860318.729,839.900,827.494,847.096,837.295,0.000,0.000,0
1507860318.731,855.184,827.288,846.959,843.532,0.000,0.000,0
1507860318.733,862.587,824.546,847.850,841.133,0.000,0.000,0
1507860318.735,855.390,825.575,848.124,839.625,0.000,0.000,0
1507860318.737,852.511,828.042,847.370,846.411,0.000,0.000,0
1507860318.739,825.986,825.437,845.657,830.030,0.000,0.000,0
1507860318.741,810.770,825.026,845.726,823.244,0.000,0.000,0
1507860318.743,804.121,824.204,844.972,819.611,0.000,0.000,0
1507860318.745,809.604,822.696,842.984,823.107,0.000,0.000,0
1507860318.747,816.253,822.285,841.545,828.864,0.000,0.000,0
1507860318.749,825.437,821.805,843.190,835.239,0.000,0.000,0
1507860318.751,848.810,825.369,843.601,839.420,0.000,0.000,0
1507860318.753,871.634,828.179,844.492,850.318,0.000,0.000,0
1507860318.755,860.051,823.587,845.246,844.834,0.000,0.000,0
1507860318.757,844.629,823.176,843.052,837.569,0.000,0.000,0
1507860318.759,821.599,820.297,843.258,819.406,0.000,0.000,0
1507860318.761,819.474,818.378,843.052,823.176,0.000,0.000,0
1507860318.763,819.749,822.147,844.149,826.740,0.000,0.000,0
1507860318.765,823.176,824.683,843.601,831.812,0.000,0.000,0
1507860318.767,831.126,828.179,844.492,839.625,0.000,0.000,0
1507860318.769,843.532,828.111,844.697,847.508,0.000,0.000,0
1507860318.771,857.446,827.151,841.887,852.580,0.000,0.000,0
1507860318.773,865.808,828.179,841.613,848.399,0.000,0.000,0
1507860318.775,854.567,831.058,841.956,836.610,0.000,0.000,0
1507860318.777,855.116,832.497,846.411,843.052,0.000,0.000,0
1507860318.779,840.516,829.893,845.040,837.158,0.000,0.000,0
1507860318.781,823.039,826.740,844.355,830.921,0.000,0.000,0
1507860318.783,814.128,825.849,843.601,830.098,0.000,0.000,0
1507860318.785,830.030,825.780,843.464,846.137,0.000,0.000,0
1507860318.787,831.949,825.917,842.504,843.532,0.000,0.000,0
1507860318.789,829.413,824.889,840.311,833.799,0.000,0.000,0
1507860318.791,846.617,828.042,842.847,831.195,0.000,0.000,0
1507860318.793,862.244,826.328,846.342,838.871,0.000,0.000,0
1507860318.795,864.026,824.135,848.262,844.972,0.000,0.000,0
1507860318.797,848.262,821.531,847.645,839.694,0.000,0.000,0
1507860318.799,824.067,817.487,845.794,830.098,0.000,0.000,0
1507860318.801,807.206,817.966,844.903,822.970,0.000,0.000,0
1507860318.803,803.641,820.297,845.109,824.067,0.000,0.000,0
1507860318.805,822.147,820.434,843.464,839.077,0.000,0.000,0
1507860318.807,827.836,823.244,843.943,832.703,0.000,0.000,0
1507860318.809,834.348,824.341,843.601,828.522,0.000,0.000,0
1507860318.811,844.629,830.372,845.863,833.799,0.000,0.000,0
1507860318.813,861.216,833.868,848.193,841.065,0.000,0.000,0
1507860318.815,859.639,834.005,848.810,842.298,0.000,0.000,0
1507860318.817,847.370,833.114,848.810,838.117,0.000,0.000,0
1507860318.819,831.880,828.385,847.028,845.040,0.000,0.000,0
1507860318.821,814.745,823.244,846.617,832.497,0.000,0.000,0
1507860318.823,804.258,822.147,843.738,814.265,0.000,0.000,0
1507860318.825,806.109,826.808,842.298,811.455,0.000,0.000,0
1507860318.827,827.014,827.425,842.641,835.513,0.000,0.000,0
1507860318.829,838.392,823.792,840.791,841.202,0.000,0.000,0
1507860318.831,854.841,822.490,843.395,844.081,0.000,0.000,0
1507860318.833,869.852,822.696,847.850,846.959,0.000,0.000,0
1507860318.835,865.397,823.176,849.153,845.863,0.000,0.000,0
1507860318.837,858.885,825.437,851.277,857.103,0.000,0.000,0
1507860318.839,827.014,824.067,847.576,839.420,0.000,0.000,0
1507860318.841,815.842,823.930,846.068,834.622,0.000,0.000,0
1507860318.843,812.141,821.188,846.685,831.538,0.000,0.000,0
1507860318.845,823.176,819.269,846.822,832.154,0.000,0.000,0
1507860318.847,828.933,819.886,845.451,835.650,0.000,0.000,0
1507860318.849,833.936,821.531,845.657,840.654,0.000,0.000,0
1507860318.851,856.144,822.901,846.411,844.972,0.000,0.000,0
1507860318.853,873.964,822.559,846.822,854.499,0.000,0.000,0
1507860318.855,867.247,816.664,847.645,850.249,0.000,0.000,0
1507860318.857,857.446,814.814,848.330,842.573,0.000,0.000,0
1507860318.859,830.098,813.648,845.383,824.478,0.000,0.000,0
1507860318.861,807.960,817.075,844.697,831.058,0.000,0.000,0
1507860318.863,802.888,823.930,842.778,826.808,0.000,0.000,0
1507860318.865,815.979,827.973,842.573,819.474,0.000,0.000,0
1507860318.867,830.098,828.042,844.081,825.163,0.000,0.000,0
1507860318.869,841.407,826.123,843.601,841.750,0.000,0.000,0
1507860318.871,847.713,829.207,845.520,845.109,0.000,0.000,0
1507860318.873,854.636,829.961,845.109,835.102,0.000,0.000,0
1507860318.875,852.991,832.154,847.165,829.002,0.000,0.000,0
1507860318.877,854.293,832.086,848.262,839.146,0.000,0.000,0
1507860318.879,839.900,826.808,844.218,830.235,0.000,0.000,0
1507860318.881,824.683,825.643,841.065,821.462,0.000,0.000,0
1507860318.883,815.636,824.752,840.242,821.668,0.000,0.000,0
1507860318.885,820.640,824.135,839.488,824.821,0.000,0.000,0
1507860318.887,836.335,825.095,839.420,840.722,0.000,0.000,0
1507860318.889,836.130,827.151,839.557,839.009,0.000,0.000,0
1507860318.891,849.221,827.219,840.448,840.242,0.000,0.000,0
1507860318.893,861.764,829.344,843.943,836.335,0.000,0.000,0
1507860318.895,864.917,830.578,846.822,843.532,0.000,0.000,0
1507860318.897,853.608,826.191,849.769,841.270,0.000,0.000,0
1507860318.899,835.650,822.079,848.947,830.372,0.000,0.000,0
1507860318.901,819.749,822.559,847.165,821.736,0.000,0.000,0
1507860318.903,818.446,823.381,845.109,833.799,0.000,0.000,0
1507860318.905,822.764,824.958,841.270,828.659,0.000,0.000,0
1507860318.907,823.655,827.699,841.956,817.487,0.000,0.000,0
1507860318.909,836.335,832.086,846.411,826.740,0.000,0.000,0
1507860318.911,860.736,833.251,847.576,842.847,0.000,0.000,0
1507860318.913,873.416,832.977,847.850,845.726,0.000,0.000,0
1507860318.915,864.574,830.098,845.383,844.697,0.000,0.000,0
1507860318.917,856.075,827.768,845.794,835.993,0.000,0.000,0
1507860318.919,845.246,823.313,844.218,828.864,0.000,0.000,0
1507860318.921,839.625,821.462,844.560,840.311,0.000,0.000,0
1507860318.923,819.269,824.821,844.766,834.279,0.000,0.000,0
1507860318.925,819.406,824.615,844.697,836.884,0.000,0.000,0
1507860318.927,828.727,826.397,846.548,842.367,0.000,0.000,0
1507860318.929,841.133,826.260,848.467,847.850,0.000,0.000,0
1507860318.931,855.870,825.712,847.576,843.327,0.000,0.000,0
1507860318.933,872.251,828.453,847.576,840.516,0.000,0.000,0
1507860318.935,882.532,828.248,848.947,856.212,0.000,0.000,0
1507860318.937,861.353,829.755,847.576,843.943,0.000,0.000,0
1507860318.939,840.722,826.534,847.713,834.759,0.000,0.000,0
1507860318.941,820.503,818.652,848.536,829.002,0.000,0.000,0
1507860318.943,817.555,814.814,847.028,830.578,0.000,0.000,0
1507860318.945,830.578,819.954,843.464,829.413,0.000,0.000,0
1507860318.947,835.856,827.699,842.504,829.002,0.000,0.000,0
1507860318.949,847.713,830.030,843.258,847.782,0.000,0.000,0
1507860318.951,850.660,828.864,842.024,843.943,0.000,0.000,0
1507860318.953,879.448,830.852,846.617,851.140,0.000,0.000,0
1507860318.955,882.738,826.328,846.822,854.704,0.000,0.000,0
1507860318.957,848.741,827.699,844.629,832.292,0.000,0.000,0
1507860318.959,838.049,833.525,843.875,839.146,0.000,0.000,0
1507860318.961,817.761,831.126,842.093,825.095,0.000,0.000,0
1507860318.963,807.548,826.808,840.448,814.677,0.000,0.000,0
1507860318.965,823.313,829.413,842.504,822.901,0.000,0.000,0
1507860318.967,832.292,826.054,843.601,829.070,0.000,0.000,0
1507860318.969,835.376,823.244,844.560,839.694,0.000,0.000,0
1507860318.971,856.281,825.986,846.685,857.789,0.000,0.000,0
1507860318.973,862.244,827.631,847.987,846.479,0.000,0.000,0
1507860318.975,860.873,828.796,850.866,841.407,0.000,0.000,0
1507860318.977,846.137,829.550,848.536,827.905,0.000,0.000,0
1507860318.979,829.276,826.740,845.177,821.393,0.000,0.000,0
1507860318.981,809.810,825.163,844.972,822.010,0.000,0.000,0
1507860318.983,804.944,824.204,842.710,824.272,0.000,0.000,0
1507860318.985,821.119,825.232,841.819,839.900,0.000,0.000,0
1507860318.987,821.736,826.466,842.984,840.037,0.000,0.000,0
1507860318.989,822.901,827.288,843.875,838.255,0.000,0.000,0
1507860318.991,829.276,832.634,847.782,825.232,0.000,0.000,0
1507860318.993,859.776,836.747,849.769,834.416,0.000,0.000,0
1507860318.995,864.094,834.074,849.769,837.638,0.000,0.000,0
1507860318.997,851.209,830.030,849.495,835.239,0.000,0.000,0
1507860318.999,837.706,828.248,848.741,829.002,0.000,0.000,0
1507860319.001,825.300,825.780,845.863,824.889,0.000,0.000,0
1507860319.003,819.200,824.135,846.822,834.142,0.000,0.000,0
1507860319.005,815.362,819.543,844.492,836.952,0.000,0.000,0
1507860319.007,821.119,821.873,843.806,832.566,0.000,0.000,0
1507860319.009,830.921,826.191,844.560,828.727,0.000,0.000,0
1507860319.011,856.075,831.675,845.657,838.460,0.000,0.000,0
1507860319.013,868.138,834.142,844.972,841.750,0.000,0.000,0
1507860319.015,860.393,835.787,848.262,843.121,0.000,0.000,0
1507860319.017,853.196,830.715,849.358,837.295,0.000,0.000,0
1507860319.019,838.871,824.135,847.919,837.775,0.000,0.000,0
1507860319.021,813.032,820.023,844.697,827.562,0.000,0.000,0
1507860319.023,796.856,816.596,842.915,816.047,0.000,0.000,0
1507860319.025,807.617,821.873,845.040,815.910,0.000,0.000,0
1507860319.027,829.893,826.808,842.710,832.703,0.000,0.000,0
1507860319.029,837.912,828.111,842.436,836.747,0.000,0.000,0
1507860319.031,851.689,829.139,845.588,842.778,0.000,0.000,0
1507860319.033,864.917,827.631,847.096,847.028,0.000,0.000,0
1507860319.035,861.901,823.176,847.576,849.016,0.000,0.000,0
1507860319.037,864.643,823.587,847.713,856.692,0.000,0.000,0
1507860319.039,837.912,826.534,842.847,837.501,0.000,0.000,0
1507860319.041,822.079,831.126,841.682,834.690,0.000,0.000,0
1507860319.043,822.764,830.304,840.242,840.722,0.000,0.000,0
1507860319.045,821.119,828.933,840.037,833.388,0.000,0.000,0
1507860319.047,812.757,830.509,840.654,818.035,0.000,0.000,0
1507860319.049,824.204,832.497,843.875,822.627,0.000,0.000,0
1507860319.051,842.984,830.647,844.081,832.017,0.000,0.000,0
1507860319.053,861.490,828.385,846.342,848.124,0.000,0.000,0
1507860319.055,852.168,826.123,846.068,841.613,0.000,0.000,0
1507860319.057,834.142,824.821,845.726,824.821,0.000,0.000,0
1507860319.059,831.606,829.893,847.370,824.204,0.000,0.000,0
1507860319.061,822.833,827.973,846.754,820.297,0.000,0.000,0
1507860319.063,818.104,825.506,844.218,820.297,0.000,0.000,0
1507860319.065,813.511,825.095,843.258,825.300,0.000,0.000,0
1507860319.067,824.546,823.450,844.081,834.485,0.000,0.000,0
1507860319.069,839.557,822.833,846.068,847.096,0.000,0.000,0
1507860319.071,848.673,819.337,844.834,848.056,0.000,0.000,0
1507860319.073,862.175,820.777,844.560,847.645,0.000,0.000,0
1507860319.075,849.975,824.752,845.726,834.759,0.000,0.000,0
1507860319.077,847.645,827.425,845.040,837.843,0.000,0.000,0
1507860319.079,836.473,828.590,843.532,832.292,0.000,0.000,0
1507860319.081,814.539,823.724,842.847,827.836,0.000,0.000,0
1507860319.083,806.452,818.172,841.133,825.917,0.000,0.000,0
1507860319.085,813.854,818.446,840.037,824.204,0.000,0.000,0
1507860319.087,836.404,821.325,842.915,841.682,0.000,0.000,0
1507860319.089,836.952,823.998,845.863,843.601,0.000,0.000,0
1507860319.091,847.713,826.123,846.479,848.604,0.000,0.000,0
1507860319.093,867.110,832.154,847.782,846.137,0.000,0.000,0
1507860319.095,867.179,833.388,847.096,844.834,0.000,0.000,0
1507860319.097,849.358,831.469,845.177,837.638,0.000,0.000,0
1507860319.099,826.808,829.413,844.286,828.864,0.000,0.000,0
1507860319.101,817.966,826.123,844.423,835.239,0.000,0.000,0
1507860319.103,805.766,823.244,840.585,823.792,0.000,0.000,0
1507860319.105,813.237,824.272,839.077,822.216,0.000,0.000,0
1507860319.107,817.624,826.877,839.625,815.156,0.000,0.000,0
1507860319.109,844.081,829.618,840.996,830.509,0.000,0.000,0
1507860319.111,860.188,828.796,839.214,839.968,0.000,0.000,0
1507860319.113,864.437,826.877,838.255,839.968,0.000,0.000,0
1507860319.115,860.119,822.627,839.762,841.476,0.000,0.000,0
1507860319.117,841.545,820.982,841.545,834.759,0.000,0.000,0
1507860319.119,825.917,824.204,843.464,823.930,0.000,0.000,0
1507860319.121,813.032,821.668,842.573,818.446,0.000,0.000,0
1507860319.123,816.390,816.253,842.230,833.525,0.000,0.000,0
1507860319.125,821.736,818.926,841.819,832.223,0.000,0.000,0
1507860319.127,826.054,822.010,838.871,824.546,0.000,0.000,0
1507860319.129,834.965,827.768,840.448,832.086,0.000,0.000,0
1507860319.131,847.302,833.457,841.407,838.255,0.000,0.000,0
1507860319.133,862.655,834.348,842.915,840.105,0.000,0.000,0
1507860319.135,869.578,832.840,843.875,851.346,0.000,0.000,0
1507860319.137,849.358,830.372,843.806,837.980,0.000,0.000,0
1507860319.139,826.945,828.590,842.573,823.930,0.000,0.000,0
1507860319.141,803.573,829.893,841.613,807.617,0.000,0.000,0
1507860319.143,811.729,827.836,843.464,824.683,0.000,0.000,0
1507860319.145,816.184,823.039,840.585,827.562,0.000,0.000,0
1507860319.147,827.494,818.995,840.311,832.771,0.000,0.000,0
1507860319.149,838.803,817.692,842.915,836.610,0.000,0.000,0
1507860319.151,854.499,820.914,844.766,835.307,0.000,0.000,0
1507860319.153,871.908,825.232,846.479,840.242,0.000,0.000,0
1507860319.155,876.021,826.671,847.028,852.648,0.000,0.000,0
1507860319.157,846.137,827.562,844.697,838.460,0.000,0.000,0
1507860319.159,821.736,829.002,842.024,826.877,0.000,0.000,0
1507860319.161,804.053,828.864,841.476,819.954,0.000,0.000,0
1507860319.163,806.383,823.792,840.859,822.970,0.000,0.000,0
1507860319.165,817.555,820.503,841.750,823.107,0.000,0.000,0
1507860319.167,828.727,819.954,841.887,827.014,0.000,0.000,0
1507860319.169,844.903,818.035,842.915,845.657,0.000,0.000,0
1507860319.171,853.813,818.789,841.476,845.588,0.000,0.000,0
1507860319.173,855.458,822.079,841.476,834.485,0.000,0.000,0
1507860319.175,853.471,829.961,844.423,831.538,0.000,0.000,0
1507860319.177,844.149,828.111,844.423,843.052,0.000,0.000,0
1507860319.179,827.768,828.111,843.875,835.513,0.000,0.000,0
1507860319.181,814.128,828.933,844.149,828.042,0.000,0.000,0
1507860319.183,807.685,827.357,844.423,827.288,0.000,0.000,0
1507860319.185,804.190,826.808,843.190,824.272,0.000,0.000,0
1507860319.187,823.381,820.845,843.052,838.871,0.000,0.000,0
1507860319.189,838.392,820.777,844.149,840.037,0.000,0.000,0
1507860319.191,842.093,824.272,844.081,830.921,0.000,0.000,0
1507860319.193,859.639,827.219,845.109,842.573,0.000,0.000,0
1507860319.195,858.817,825.163,845.383,849.975,0.000,0.000,0
1507860319.197,844.286,823.861,844.972,848.741,0.000,0.000,0
1507860319.199,828.316,825.712,841.065,839.557,0.000,0.000,0
1507860319.201,825.986,823.518,840.585,840.105,0.000,0.000,0
1507860319.203,816.390,820.160,840.311,831.812,0.000,0.000,0
1507860319.205,822.559,821.325,839.694,834.416,0.000,0.000,0
1507860319.207,821.805,828.111,841.819,823.450,0.000,0.000,0
1507860319.209,843.738,831.400,845.040,841.476,0.000,0.000,0
1507860319.211,851.894,828.248,842.915,850.181,0.000,0.000,0
1507860319.213,868.550,830.715,844.423,855.801,0.000,0.000,0
1507860319.215,871.223,833.114,845.383,857.377,0.000,0.000,0
1507860319.217,849.221,829.618,845.726,855.527,0.000,0.000,0
1507860319.219,827.973,827.219,844.149,846.754,0.000,0.000,0
1507860319.221,827.699,828.727,845.794,846.137,0.000,0.000,0
1507860319.223,812.757,825.643,842.984,830.167,0.000,0.000,0
1507860319.225,808.645,825.026,841.065,821.531,0.000,0.000,0
1507860319.227,818.720,829.276,842.367,822.147,0.000,0.000,0
1507860319.229,833.320,828.933,842.847,832.154,0.000,0.000,0
1507860319.231,846.342,829.002,844.218,843.532,0.000,0.000,0
1507860319.233,858.885,826.397,844.012,847.508,0.000,0.000,0
1507860319.235,875.541,825.575,844.972,860.393,0.000,0.000,0
1507860319.237,860.256,825.780,846.342,847.508,0.000,0.000,0
1507860319.239,836.267,827.014,844.834,831.195,0.000,0.000,0
1507860319.241,810.838,826.534,845.383,816.527,0.000,0.000,0
1507860319.243,819.132,824.683,846.342,833.320,0.000,0.000,0
1507860319.245,822.285,822.559,843.464,832.840,0.000,0.000,0
1507860319.247,830.921,823.792,843.052,830.441,0.000,0.000,0
1507860319.249,837.843,822.627,843.875,839.351,0.000,0.000,0
1507860319.251,854.225,824.478,844.972,847.782,0.000,0.000,0
1507860319.253,873.964,825.986,848.810,857.583,0.000,0.000,0
1507860319.255,869.646,821.119,847.096,861.970,0.000,0.000,0
1507860319.257,853.059,817.144,845.931,845.109,0.000,0.000,0
1507860319.259,834.005,819.063,845.657,828.590,0.000,0.000,0
1507860319.261,811.866,820.228,845.588,821.599,0.000,0.000,0
1507860319.263,806.931,821.051,844.149,825.712,0.000,0.000,0
1507860319.265,814.677,821.599,845.726,833.731,0.000,0.000,0
1507860319.267,832.840,819.886,846.342,847.233,0.000,0.000,0
1507860319.269,841.887,818.652,842.915,847.919,0.000,0.000,0
1507860319.271,850.592,823.039,843.464,843.464,0.000,0.000,0
1507860319.273,853.265,826.466,845.040,837.843,0.000,0.000,0
1507860319.275,848.878,826.397,847.165,839.214,0.000,0.000,0
1507860319.277,843.052,819.337,846.274,846.548,0.000,0.000,0
1507860319.279,822.147,812.894,844.903,836.747,0.000,0.000,0
1507860319.281,805.286,809.947,843.601,829.755,0.000,0.000,0
1507860319.283,798.021,813.169,842.847,830.304,0.000,0.000,0
1507860319.285,801.859,817.213,842.161,835.513,0.000,0.000,0
1507860319.287,823.039,819.474,840.654,846.205,0.000,0.000,0
1507860319.289,838.803,821.051,840.859,841.339,0.000,0.000,0
1507860319.291,840.928,822.833,840.379,826.740,0.000,0.000,0
1507860319.293,859.639,827.836,843.875,834.759,0.000,0.000,0
1507860319.295,860.462,828.590,845.109,839.420,0.000,0.000,0
1507860319.297,849.838,828.727,844.903,837.843,0.000,0.000,0
1507860319.299,832.908,828.453,843.738,831.332,0.000,0.000,0
1507860319.301,826.191,829.002,843.190,839.214,0.000,0.000,0
1507860319.303,810.153,826.466,840.722,826.945,0.000,0.000,0
1507860319.305,817.350,822.147,840.928,827.768,0.000,0.000,0
1507860319.307,823.244,822.627,842.504,816.321,0.000,0.000,0
1507860319.309,843.532,820.365,845.451,836.130,0.000,0.000,0
1507860319.311,853.471,815.499,845.657,845.931,0.000,0.000,0
1507860319.313,868.138,816.664,846.548,848.124,0.000,0.000,0
1507860319.315,867.316,820.640,847.576,846.891,0.000,0.000,0
1507860319.317,858.474,822.696,848.124,844.697,0.000,0.000,0
1507860319.319,835.376,821.051,847.096,837.226,0.000,0.000,0
1507860319.321,822.353,817.761,847.508,849.906,0.000,0.000,0
1507860319.323,806.726,815.636,845.040,838.392,0.000,0.000,0
1507860319.325,809.879,818.789,844.697,834.005,0.000,0.000,0
1507860319.327,813.100,820.640,847.645,834.896,0.000,0.000,0
1507860319.329,827.973,822.010,848.467,846.205,0.000,0.000,0
1507860319.331,853.196,824.067,848.056,844.355,0.000,0.000,0
1507860319.333,868.275,825.300,846.274,848.193,0.000,0.000,0
1507860319.335,873.279,827.973,845.863,858.406,0.000,0.000,0
1507860319.337,848.878,829.002,847.028,845.451,0.000,0.000,0
1507860319.339,822.833,828.522,847.850,829.755,0.000,0.000,0
1507860319.341,800.352,827.082,849.084,815.225,0.000,0.000,0
1507860319.343,810.838,823.039,850.181,831.126,0.000,0.000,0
1507860319.345,817.144,821.805,848.878,830.784,0.000,0.000,0
1507860319.347,823.655,824.683,847.713,826.945,0.000,0.000,0
1507860319.349,831.400,825.575,846.959,831.743,0.000,0.000,0
1507860319.351,842.847,827.014,847.370,838.392,0.000,0.000,0
1507860319.353,864.506,827.288,850.249,857.240,0.000,0.000,0
1507860319.355,863.683,823.724,849.906,848.193,0.000,0.000,0
1507860319.357,835.924,820.503,847.370,829.824,0.000,0.000,0
1507860319.359,820.228,823.724,847.576,816.459,0.000,0.000,0
1507860319.361,815.910,822.147,846.342,816.116,0.000,0.000,0
1507860319.363,807.206,818.035,844.560,817.829,0.000,0.000,0
1507860319.365,811.387,816.870,843.190,822.833,0.000,0.000,0
1507860319.367,827.425,816.047,843.875,826.466,0.000,0.000,0
1507860319.369,842.984,821.805,846.137,832.634,0.000,0.000,0
1507860319.371,866.905,824.821,847.576,845.177,0.000,0.000,0
1507860319.373,866.836,825.917,847.439,839.420,0.000,0.000,0
1507860319.375,860.462,822.696,847.508,834.965,0.000,0.000,0
1507860319.377,844.286,818.652,848.536,826.260,0.000,0.000,0
1507860319.379,829.413,815.842,847.645,820.297,0.000,0.000,0
1507860319.381,811.455,818.720,846.822,818.446,0.000,0.000,0
1507860319.383,814.197,821.805,846.274,830.372,0.000,0.000,0
1507860319.385,823.244,822.422,842.093,832.497,0.000,0.000,0
1507860319.387,830.098,823.244,840.174,824.752,0.000,0.000,0
1507860319.389,831.195,825.986,843.395,822.079,0.000,0.000,0
1507860319.391,852.374,827.631,847.096,833.731,0.000,0.000,0
1507860319.393,869.715,830.852,848.673,842.847,0.000,0.000,2
1507860319.395,868.961,829.550,847.439,842.710,0.000,0.000,0
1507860319.397,853.334,828.111,846.754,831.538,0.000,0.000,0
1507860319.399,839.351,825.369,847.028,824.752,0.000,0.000,0
1507860319.401,826.397,823.518,849.221,824.272,0.000,0.000,0
1507860319.403,823.107,819.954,847.508,838.803,0.000,0.000,0
1507860319.405,824.478,820.503,846.891,840.791,0.000,0.000,0
1507860319.407,820.023,823.313,845.451,836.678,0.000,0.000,0
1507860319.409,827.905,822.627,846.274,845.931,0.000,0.000,0
1507860319.411,838.049,821.873,848.056,843.738,0.000,0.000,0
1507860319.413,858.131,823.450,850.592,845.177,0.000,0.000,0
1507860319.415,861.010,823.724,850.112,851.003,0.000,0.000,0
1507860319.417,847.096,821.393,850.386,849.016,0.000,0.000,0
1507860319.419,834.005,821.325,848.467,847.850,0.000,0.000,0
1507860319.421,817.281,820.571,846.754,835.239,0.000,0.000,0
1507860319.423,804.738,818.857,843.532,823.930,0.000,0.000,0
1507860319.425,802.545,820.777,844.492,816.870,0.000,0.000,0
1507860319.427,821.942,824.067,847.096,832.223,0.000,0.000,0
1507860319.429,833.731,826.671,845.726,835.787,0.000,0.000,0
1507860319.431,849.701,828.727,844.492,832.017,0.000,0.000,0
1507860319.433,865.260,830.167,844.972,833.868,0.000,0.000,0
1507860319.435,865.739,827.562,847.233,835.444,0.000,0.000,0
1507860319.437,855.458,821.668,847.645,848.467,0.000,0.000,0
1507860319.439,832.429,817.281,846.479,835.102,0.000,0.000,0
1507860319.441,806.177,819.543,844.766,814.745,0.000,0.000,0
1507860319.443,807.960,824.204,845.863,815.362,0.000,0.000,0
1507860319.445,818.035,829.002,843.738,821.325,0.000,0.000,0
1507860319.447,828.316,830.578,843.943,826.740,0.000,0.000,0
1507860319.449,827.631,829.755,846.891,835.650,0.000,0.000,0
1507860319.451,848.193,829.413,851.346,850.592,0.000,0.000,0
1507860319.453,854.362,827.562,850.318,841.887,0.000,0.000,0
1507860319.455,853.608,827.082,848.604,839.968,0.000,0.000,0
1507860319.457,835.444,825.780,847.713,826.945,0.000,0.000,0
1507860319.459,831.606,823.792,847.782,830.098,0.000,0.000,0
1507860319.461,818.172,821.393,847.096,828.864,0.000,0.000,0
1507860319.463,807.754,819.817,845.451,821.462,0.000,0.000,0
1507860319.465,810.153,818.652,846.411,816.390,0.000,0.000,0
1507860319.467,819.200,821.531,847.233,818.926,0.000,0.000,0
1507860319.469,829.070,827.425,847.508,828.042,0.000,0.000,0
1507860319.471,847.850,827.014,848.124,846.411,0.000,0.000,0
1507860319.473,854.499,823.861,848.056,838.117,0.000,0.000,0
1507860319.475,845.520,823.176,849.358,827.494,0.000,0.000,0
1507860319.477,841.407,821.942,851.140,832.154,0.000,0.000,0
1507860319.479,828.248,820.365,847.302,827.699,0.000,0.000,0
1507860319.481,813.100,820.365,847.439,825.849,0.000,0.000,0
1507860319.483,813.237,819.063,845.109,828.179,0.000,0.000,0
1507860319.485,826.534,821.805,842.367,840.928,0.000,0.000,0
1507860319.487,827.082,826.740,842.367,834.142,0.000,0.000,0
1507860319.489,825.986,827.357,840.859,836.061,0.000,0.000,0
1507860319.491,839.900,829.207,846.479,840.928,0.000,0.000,0
1507860319.493,862.312,826.397,849.906,856.075,0.000,0.000,0
1507860319.495,866.630,824.135,851.689,860.188,0.000,0.000,0
1507860319.497,852.305,825.095,852.580,849.153,0.000,0.000,0
1507860319.499,829.824,825.643,850.592,831.606,0.000,0.000,0
1507860319.501,812.963,826.877,849.016,827.288,0.000,0.000,0
1507860319.503,823.313,826.808,848.193,843.943,0.000,0.000,0
1507860319.505,821.393,826.123,849.290,836.747,0.000,0.000,0
1507860319.507,820.228,824.752,848.262,824.409,0.000,0.000,0
1507860319.509,829.824,825.917,850.935,833.594,0.000,0.000,0
1507860319.511,847.439,825.232,851.620,846.685,0.000,0.000,0
1507860319.513,861.833,828.111,852.374,852.305,0.000,0.000,0
1507860319.515,864.574,829.070,852.922,852.031,0.000,0.000,0
1507860319.517,859.022,827.357,854.362,854.293,0.000,0.000,0
1507860319.519,837.843,821.325,849.769,839.900,0.000,0.000,0
1507860319.521,817.966,822.010,847.645,827.082,0.000,0.000,0
1507860319.523,800.077,827.288,846.891,814.402,0.000,0.000,0
1507860319.525,801.242,833.114,846.822,820.777,0.000,0.000,0
1507860319.527,818.652,829.207,846.342,831.743,0.000,0.000,0
1507860319.529,834.348,826.191,847.233,838.529,0.000,0.000,0
1507860319.531,853.882,827.494,850.866,847.165,0.000,0.000,0
1507860319.533,872.662,827.219,851.552,849.427,0.000,0.000,0
1507860319.535,877.460,824.546,851.483,858.406,0.000,0.000,0
1507860319.537,845.863,821.188,851.140,844.012,0.000,0.000,0
1507860319.539,816.733,818.378,847.028,826.945,0.000,0.000,0
1507860319.541,797.747,819.749,845.726,815.705,0.000,0.000,0
1507860319.543,810.975,821.599,844.081,825.575,0.000,0.000,0
1507860319.545,817.487,825.026,845.314,830.235,0.000,0.000,0
1507860319.547,826.534,831.263,844.423,831.332,0.000,0.000,0
1507860319.549,831.332,831.469,843.601,834.485,0.000,0.000,0
1507860319.551,848.947,830.852,845.040,838.734,0.000,0.000,0
1507860319.553,869.304,827.631,849.564,845.588,0.000,0.000,0
1507860319.555,865.191,817.829,847.782,853.196,0.000,0.000,0
1507860319.557,849.769,815.910,847.096,842.641,0.000,0.000,0
1507860319.559,827.699,818.926,843.943,820.640,0.000,0.000,0
1507860319.561,810.153,818.652,841.613,814.539,0.000,0.000,0
1507860319.563,808.645,817.898,839.900,809.536,0.000,0.000,0
1507860319.565,814.814,820.845,842.847,813.717,0.000,0.000,0
1507860319.567,814.608,823.724,842.641,816.938,0.000,0.000,0
1507860319.569,826.191,822.490,841.956,834.485,0.000,0.000,0
1507860319.571,839.831,825.026,843.327,832.086,0.000,0.000,0
1507860319.573,854.979,827.151,841.270,827.562,0.000,0.000,0
1507860319.575,859.297,830.304,843.738,821.942,0.000,0.000,0
1507860319.577,854.979,828.111,843.738,831.195,0.000,0.000,0
1507860319.579,832.977,828.933,844.218,821.119,0.000,0.000,0
1507860319.581,810.770,827.014,844.492,815.979,0.000,0.000,0
1507860319.583,804.532,824.067,843.258,812.826,0.000,0.000,0
1507860319.585,820.365,824.341,844.012,828.042,0.000,0.000,0
1507860319.587,825.849,825.163,842.778,817.829,0.000,0.000,0
1507860319.589,835.239,826.191,842.641,819.817,0.000,0.000,0
1507860319.591,838.460,829.961,843.327,817.144,0.000,0.000,0
1507860319.593,859.022,830.921,846.205,838.117,0.000,0.000,0
1507860319.595,867.727,829.002,845.726,838.597,0.000,0.000,0
1507860319.597,858.817,829.687,845.794,833.320,0.000,0.000,0
1507860319.599,840.311,832.977,845.726,828.522,0.000,0.000,0
1507860319.601,825.849,832.429,845.863,823.450,0.000,0.000,0
1507860319.603,832.429,831.675,844.697,837.021,0.000,0.000,0
1507860319.605,829.344,831.058,843.052,832.429,0.000,0.000,0
1507860319.607,825.369,828.727,844.355,820.845,0.000,0.000,0
1507860319.609,837.295,828.796,844.903,823.518,0.000,0.000,0
1507860319.611,854.362,826.808,844.423,829.002,0.000,0.000,0
1507860319.613,871.017,825.506,844.218,832.429,0.000,0.000,0
1507860319.615,876.021,827.973,845.451,834.828,0.000,0.000,0
1507860319.617,871.017,831.675,846.479,836.952,0.000,0.000,0
1507860319.619,840.928,830.509,843.875,823.792,0.000,0.000,0
1507860319.621,823.244,828.316,844.355,825.026,0.000,0.000,0
1507860319.623,812.278,824.067,843.052,811.729,0.000,0.000,0
1507860319.625,820.228,827.494,844.012,818.789,0.000,0.000,0
1507860319.627,831.812,829.550,841.202,828.385,0.000,0.000,0
1507860319.629,841.133,830.509,843.464,837.226,0.000,0.000,0
1507860319.631,861.353,830.509,843.806,846.617,0.000,0.000,0
1507860319.633,881.024,829.893,844.766,849.153,0.000,0.000,0
1507860319.635,880.818,828.864,845.588,839.831,0.000,0.000,0
1507860319.637,873.142,825.712,844.149,842.847,0.000,0.000,0
1507860319.639,851.209,826.877,844.012,828.042,0.000,0.000,0
1507860319.641,825.986,823.998,840.928,810.633,0.000,0.000,0
1507860319.643,822.010,822.764,842.230,815.156,0.000,0.000,0
1507860319.645,816.459,823.450,841.887,821.462,0.000,0.000,0
1507860319.647,824.821,828.111,842.161,823.587,0.000,0.000,0
1507860319.649,837.775,831.263,844.355,830.167,0.000,0.000,0
1507860319.651,865.328,833.594,846.000,844.629,0.000,0.000,0
1507860319.653,871.291,832.977,844.834,838.940,0.000,0.000,0
1507860319.655,880.476,834.622,847.713,846.205,0.000,0.000,0
1507860319.657,857.240,833.936,847.645,830.852,0.000,0.000,0
1507860319.659,850.044,832.977,847.508,829.687,0.000,0.000,0
1507860319.661,830.167,828.659,845.177,825.437,0.000,0.000,0
1507860319.663,817.007,827.699,843.738,820.708,0.000,0.000,0
1507860319.665,813.169,827.288,843.052,821.668,0.000,0.000,0
1507860319.667,820.297,826.466,841.545,819.954,0.000,0.000,0
1507860319.669,830.715,826.877,843.190,824.683,0.000,0.000,0
1507860319.671,852.237,826.397,845.040,840.379,0.000,0.000,0
1507860319.673,861.421,827.219,847.165,837.912,0.000,0.000,0
1507860319.675,862.449,826.466,849.975,829.207,0.000,0.000,0
1507860319.677,856.075,825.643,849.290,830.509,0.000,0.000,0
1507860319.679,837.295,823.998,846.548,827.357,0.000,0.000,0
1507860319.681,817.555,819.406,846.342,822.627,0.000,0.000,0
1507860319.683,809.330,819.611,845.109,822.079,0.000,0.000,0
1507860319.685,815.019,816.116,842.915,830.509,0.000,0.000,0
1507860319.687,825.232,819.337,844.492,830.441,0.000,0.000,0
1507860319.689,827.905,823.313,845.726,827.082,0.000,0.000,0
1507860319.691,848.193,830.852,848.056,832.908,0.000,0.000,0
1507860319.693,872.388,829.481,847.028,847.713,0.000,0.000,0
1507860319.695,871.634,830.304,845.520,842.230,0.000,0.000,0
1507860319.697,857.103,829.961,845.726,836.267,0.000,0.000,0
1507860319.699,842.367,829.344,844.972,825.232,0.000,0.000,0
1507860319.701,821.873,825.575,844.629,822.147,0.000,0.000,0
