timestamps,TP9,FP1,FP2,TP10,n/a,n/a,Marker0
1507860450.233,841.270,826.466,844.903,818.035,0.000,0.000,0
1507860450.235,838.117,824.135,847.782,830.030,0.000,0.000,0
1507860450.237,835.650,821.668,847.028,825.986,0.000,0.000,0
1507860450.239,832.703,823.930,844.903,812.689,0.000,0.000,0
1507860450.241,827.014,824.958,845.177,808.371,0.000,0.000,0
1507860450.243,829.002,824.683,843.327,812.209,0.000,0.000,0
1507860450.245,833.662,826.808,843.806,817.761,0.000,0.000,0
1507860450.247,837.775,827.151,846.959,822.627,0.000,0.000,0
1507860450.249,838.940,828.179,847.233,822.627,0.000,0.000,0
1507860450.251,841.750,827.425,845.657,820.845,0.000,0.000,0
1507860450.253,841.682,825.712,845.657,820.434,0.000,0.000,0
1507860450.255,836.884,824.135,845.109,823.176,0.000,0.000,0
1507860450.257,845.383,823.930,846.479,833.457,0.000,0.000,0
1507860450.259,836.404,822.147,849.084,823.724,0.000,0.000,0
1507860450.261,828.590,817.966,847.439,819.132,0.000,0.000,0
1507860450.263,828.453,820.023,846.000,822.627,0.000,0.000,0
1507860450.265,834.896,822.353,845.246,821.188,0.000,0.000,0
1507860450.267,840.379,823.792,846.274,826.466,0.000,0.000,0
1507860450.269,841.065,823.381,846.137,827.425,0.000,0.000,0
1507860450.271,847.987,821.325,846.891,830.372,0.000,0.000,0
1507860450.273,849.427,821.325,841.545,839.077,0.000,0.000,0
1507860450.275,840.928,823.176,841.887,833.251,0.000,0.000,0
1507860450.277,830.715,827.014,845.246,822.901,0.000,0.000,0
1507860450.279,834.416,827.562,847.370,828.385,0.000,0.000,0
1507860450.281,832.086,825.232,847.439,827.973,0.000,0.000,0
1507860450.283,831.469,822.901,845.794,822.970,0.000,0.000,0
1507860450.285,839.351,821.188,847.576,839.762,0.000,0.000,0
1507860450.287,832.292,822.285,847.439,836.335,0.000,0.000,0
1507860450.289,838.871,824.135,845.931,836.198,0.000,0.000,0
1507860450.291,841.339,826.740,844.560,824.821,0.000,0.000,0
1507860450.293,849.975,830.715,845.520,824.889,0.000,0.000,0
1507860450.295,845.931,831.263,848.399,826.534,0.000,0.000,0
1507860450.297,836.610,827.836,848.741,823.587,0.000,0.000,0
1507860450.299,833.525,820.982,844.355,816.733,0.000,0.000,0
1507860450.301,832.908,814.814,844.218,814.128,0.000,0.000,0
1507860450.303,832.908,817.487,843.601,813.854,0.000,0.000,0
1507860450.305,833.114,821.599,845.040,817.692,0.000,0.000,0
1507860450.307,838.323,820.982,847.508,820.914,0.000,0.000,0
1507860450.309,850.592,825.712,845.383,826.945,0.000,0.000,0
1507860450.311,849.153,830.989,844.286,822.216,0.000,0.000,0
1507860450.313,841.407,834.142,843.806,823.107,0.000,0.000,0
1507860450.315,836.473,831.126,843.190,821.942,0.000,0.000,0
1507860450.317,831.126,828.727,843.258,816.253,0.000,0.000,0
1507860450.319,828.316,826.534,846.479,816.253,0.000,0.000,0
1507860450.321,833.388,822.010,844.560,819.886,0.000,0.000,0
1507860450.323,832.292,822.696,845.451,812.415,0.000,0.000,0
1507860450.325,836.747,824.752,843.806,809.673,0.000,0.000,0
1507860450.327,835.033,826.328,843.395,817.624,0.000,0.000,0
1507860450.329,841.545,822.490,845.931,831.743,0.000,0.000,0
1507860450.331,845.451,822.490,845.314,834.279,0.000,0.000,0
1507860450.333,846.274,822.285,845.451,829.070,0.000,0.000,0
1507860450.335,845.931,825.026,845.383,823.176,0.000,0.000,0
1507860450.337,844.149,822.559,846.822,824.683,0.000,0.000,0
1507860450.339,839.214,818.789,846.479,822.901,0.000,0.000,0
1507860450.341,831.812,822.901,845.657,821.805,0.000,0.000,0
1507860450.343,832.908,827.425,844.149,830.235,0.000,0.000,0
1507860450.345,837.432,830.304,843.806,826.328,0.000,0.000,0
1507860450.347,837.775,828.522,844.972,834.553,0.000,0.000,0
1507860450.349,839.009,823.861,843.395,834.348,0.000,0.000,0
1507860450.351,845.177,823.724,843.121,835.376,0.000,0.000,0
1507860450.353,850.181,827.014,845.451,848.604,0.000,0.000,0
1507860450.355,841.887,828.385,845.177,845.451,0.000,0.000,0
1507860450.357,832.566,827.562,845.657,835.719,0.000,0.000,0
1507860450.359,821.462,826.397,847.233,823.930,0.000,0.000,0
1507860450.361,827.219,828.659,849.084,824.341,0.000,0.000,0
1507860450.363,831.949,825.712,848.399,831.469,0.000,0.000,0
1507860450.365,836.815,821.531,848.673,832.840,0.000,0.000,0
1507860450.367,834.828,817.007,846.822,831.949,0.000,0.000,0
1507860450.369,836.473,818.241,845.520,834.759,0.000,0.000,0
1507860450.371,840.722,824.135,846.959,833.320,0.000,0.000,0
1507860450.373,845.726,825.300,845.314,842.573,0.000,0.000,0
1507860450.375,836.267,830.167,841.133,837.569,0.000,0.000,0
1507860450.377,828.316,831.400,839.283,824.546,0.000,0.000,0
1507860450.379,820.297,828.248,840.996,815.293,0.000,0.000,0
1507860450.381,819.680,824.821,843.190,818.789,0.000,0.000,0
1507860450.383,825.506,822.970,844.903,826.397,0.000,0.000,0
1507860450.385,838.255,823.655,845.726,833.388,0.000,0.000,0
1507860450.387,836.678,819.886,842.847,830.852,0.000,0.000,0
1507860450.389,840.105,820.914,844.629,839.077,0.000,0.000,0
1507860450.391,835.787,821.805,845.383,835.033,0.000,0.000,0
1507860450.393,839.625,822.627,848.056,839.420,0.000,0.000,0
1507860450.395,839.625,825.575,849.495,852.374,0.000,0.000,0
1507860450.397,830.235,829.002,845.931,847.850,0.000,0.000,0
1507860450.399,823.587,826.534,843.738,835.307,0.000,0.000,0
1507860450.401,822.490,822.422,845.177,835.993,0.000,0.000,0
1507860450.403,823.998,821.805,847.370,840.928,0.000,0.000,0
1507860450.405,827.631,823.518,847.919,846.754,0.000,0.000,0
1507860450.407,838.049,820.297,848.810,859.845,0.000,0.000,0
1507860450.409,839.146,817.350,849.016,856.692,0.000,0.000,0
1507860450.411,838.597,816.390,847.302,849.221,0.000,0.000,0
1507860450.413,840.105,820.365,848.604,851.689,0.000,0.000,0
1507860450.415,835.102,821.873,850.660,846.685,0.000,0.000,0
1507860450.417,828.796,825.026,846.685,838.734,0.000,0.000,0
1507860450.419,821.531,825.232,842.093,832.497,0.000,0.000,0
1507860450.421,830.509,826.671,842.984,842.093,0.000,0.000,0
1507860450.423,839.762,826.054,843.875,841.819,0.000,0.000,0
1507860450.425,838.666,823.724,846.617,833.868,0.000,0.000,0
1507860450.427,835.581,820.845,846.411,833.251,0.000,0.000,0
1507860450.429,836.130,820.023,846.274,843.327,0.000,0.000,0
1507860450.431,839.146,820.297,846.959,852.031,0.000,0.000,0
1507860450.433,845.314,823.039,846.274,854.088,0.000,0.000,0
1507860450.435,841.819,826.945,847.508,852.305,0.000,0.000,0
1507860450.437,834.896,824.135,847.302,845.588,0.000,0.000,0
1507860450.439,832.154,822.901,849.358,842.504,0.000,0.000,0
1507860450.441,834.348,819.337,847.233,841.819,0.000,0.000,0
1507860450.443,830.921,816.184,849.084,843.943,0.000,0.000,0
1507860450.445,837.021,818.789,850.523,842.778,0.000,0.000,0
1507860450.447,841.819,823.792,847.370,837.364,0.000,0.000,0
1507860450.449,842.436,823.244,848.741,849.769,0.000,0.000,0
1507860450.451,844.492,822.970,848.399,858.268,0.000,0.000,0
1507860450.453,844.560,829.139,847.713,848.330,0.000,0.000,0
1507860450.455,840.996,832.292,845.177,840.585,0.000,0.000,0
1507860450.457,840.037,833.662,845.726,838.597,0.000,0.000,0
1507860450.459,830.989,833.457,846.205,831.880,0.000,0.000,0
1507860450.461,823.930,835.102,845.246,826.740,0.000,0.000,0
1507860450.463,828.179,836.473,846.274,836.267,0.000,0.000,0
1507860450.465,831.538,834.690,846.822,835.924,0.000,0.000,0
1507860450.467,830.989,831.469,847.439,838.597,0.000,0.000,0
1507860450.469,839.420,827.973,849.427,851.963,0.000,0.000,0
1507860450.471,845.109,822.970,845.177,851.483,0.000,0.000,0
1507860450.473,843.943,823.381,845.314,843.327,0.000,0.000,0
1507860450.475,839.968,828.385,846.685,851.003,0.000,0.000,0
1507860450.477,837.569,828.316,843.669,843.875,0.000,0.000,0
1507860450.479,834.690,827.562,844.834,826.466,0.000,0.000,0
1507860450.481,831.675,828.796,846.822,827.014,0.000,0.000,0
1507860450.483,839.831,827.288,844.834,834.348,0.000,0.000,0
1507860450.485,839.146,824.752,842.230,832.017,0.000,0.000,0
1507860450.487,838.460,824.272,844.492,836.404,0.000,0.000,0
1507860450.489,851.620,824.478,846.891,853.745,0.000,0.000,0
1507860450.491,851.689,824.889,845.520,853.539,0.000,0.000,0
1507860450.493,845.109,823.861,841.887,841.545,0.000,0.000,0
1507860450.495,841.133,823.176,842.915,839.694,0.000,0.000,0
1507860450.497,838.460,825.986,842.093,824.889,0.000,0.000,0
1507860450.499,835.239,827.973,841.339,831.606,0.000,0.000,0
1507860450.501,835.581,828.385,843.875,836.061,0.000,0.000,0
1507860450.503,837.501,827.425,842.710,842.710,0.000,0.000,0
1507860450.505,836.198,823.998,840.859,839.351,0.000,0.000,0
1507860450.507,836.267,824.135,842.436,837.295,0.000,0.000,0
1507860450.509,838.392,819.063,847.096,845.383,0.000,0.000,0
1507860450.511,845.726,816.733,844.903,851.689,0.000,0.000,0
1507860450.513,845.451,820.091,844.286,853.334,0.000,0.000,0
1507860450.515,836.952,824.067,843.395,848.878,0.000,0.000,0
1507860450.517,832.908,818.378,846.754,843.601,0.000,0.000,0
1507860450.519,832.292,819.680,843.943,840.654,0.000,0.000,0
1507860450.521,825.506,821.462,844.560,843.464,0.000,0.000,0
1507860450.523,826.603,822.422,843.669,853.813,0.000,0.000,0
1507860450.525,829.276,829.618,841.613,854.088,0.000,0.000,0
1507860450.527,827.631,836.404,842.847,839.077,0.000,0.000,0
1507860450.529,835.444,836.198,844.149,839.694,0.000,0.000,0
1507860450.531,839.488,830.235,845.794,853.402,0.000,0.000,0
1507860450.533,845.246,828.522,845.314,855.321,0.000,0.000,0
1507860450.535,842.984,829.961,846.822,856.075,0.000,0.000,0
1507860450.537,839.283,828.522,843.669,854.430,0.000,0.000,0
1507860450.539,823.930,828.042,842.298,843.121,0.000,0.000,0
1507860450.541,817.761,827.768,840.311,834.348,0.000,0.000,0
1507860450.543,819.611,827.219,842.024,825.437,0.000,0.000,0
1507860450.545,835.513,828.727,840.928,839.557,0.000,0.000,0
1507860450.547,839.831,826.808,842.024,848.124,0.000,0.000,0
1507860450.549,839.625,823.655,842.298,846.822,0.000,0.000,0
1507860450.551,839.146,820.297,842.915,847.165,0.000,0.000,0
1507860450.553,838.940,820.571,842.984,849.290,0.000,0.000,0
1507860450.555,837.706,822.833,843.875,854.979,0.000,0.000,0
1507860450.557,837.364,825.643,840.791,857.515,0.000,0.000,0
1507860450.559,832.634,826.123,841.545,852.991,0.000,0.000,0
1507860450.561,830.509,823.313,842.915,848.193,0.000,0.000,0
1507860450.563,829.070,818.515,843.121,847.645,0.000,0.000,0
1507860450.565,833.251,818.446,845.588,842.984,0.000,0.000,0
1507860450.567,838.186,821.462,844.218,833.114,0.000,0.000,0
1507860450.569,839.488,824.409,842.915,841.956,0.000,0.000,0
1507860450.571,836.610,824.889,842.230,840.311,0.000,0.000,0
1507860450.573,846.548,823.655,840.722,843.190,0.000,0.000,0
1507860450.575,839.625,822.353,841.065,825.575,0.000,0.000,0
1507860450.577,838.597,822.285,844.218,827.905,0.000,0.000,0
1507860450.579,835.787,817.898,842.915,831.538,0.000,0.000,0
1507860450.581,831.949,815.019,844.012,832.840,0.000,0.000,0
1507860450.583,830.304,820.228,846.411,833.525,0.000,0.000,0
1507860450.585,829.344,824.478,850.729,838.666,0.000,0.000,0
1507860450.587,831.263,824.067,850.523,849.906,0.000,0.000,0
1507860450.589,840.585,819.749,849.975,861.558,0.000,0.000,0
1507860450.591,844.218,819.749,845.520,854.910,0.000,0.000,0
1507860450.593,844.629,819.474,843.669,852.785,0.000,0.000,0
1507860450.595,834.553,817.829,847.165,848.536,0.000,0.000,0
1507860450.597,832.634,821.188,847.987,846.205,0.000,0.000,0
1507860450.599,822.559,820.228,848.810,847.439,0.000,0.000,0
1507860450.601,819.611,817.075,845.726,844.972,0.000,0.000,0
1507860450.603,831.332,815.225,848.124,855.047,0.000,0.000,0
1507860450.605,832.497,818.309,848.467,854.636,0.000,0.000,0
1507860450.607,833.868,822.970,850.044,857.309,0.000,0.000,0
1507860450.609,831.880,829.824,850.660,844.560,0.000,0.000,0
1507860450.611,841.270,829.276,851.689,849.769,0.000,0.000,0
1507860450.613,842.436,827.631,849.975,850.660,0.000,0.000,0
1507860450.615,837.021,827.425,850.318,850.044,0.000,0.000,0
1507860450.617,834.005,827.973,851.003,849.906,0.000,0.000,0
1507860450.619,828.933,822.490,849.495,840.585,0.000,0.000,0
1507860450.621,828.111,818.309,847.850,844.903,0.000,0.000,0
1507860450.623,829.961,816.596,849.153,854.156,0.000,0.000,0
1507860450.625,834.142,822.079,851.552,852.785,0.000,0.000,0
1507860450.627,833.114,822.010,848.467,847.645,0.000,0.000,0
1507860450.629,836.541,822.285,845.657,849.906,0.000,0.000,0
1507860450.631,841.339,820.914,847.165,852.785,0.000,0.000,0
1507860450.633,838.186,816.321,847.576,846.959,0.000,0.000,0
1507860450.635,830.167,812.003,850.935,846.822,0.000,0.000,0
1507860450.637,835.513,813.306,849.153,849.358,0.000,0.000,0
1507860450.639,833.731,816.664,845.177,847.370,0.000,0.000,0
1507860450.641,824.546,816.801,847.508,834.828,0.000,0.000,0
1507860450.643,820.091,819.337,850.181,824.067,0.000,0.000,0
1507860450.645,833.251,823.039,850.592,835.102,0.000,0.000,0
1507860450.647,834.211,826.191,850.729,842.230,0.000,0.000,0
1507860450.649,836.884,827.014,851.414,849.221,0.000,0.000,0
1507860450.651,838.734,827.494,849.427,842.847,0.000,0.000,0
1507860450.653,837.432,827.082,846.137,845.246,0.000,0.000,0
1507860450.655,836.815,825.300,844.423,856.212,0.000,0.000,0
1507860450.657,831.332,823.518,844.697,842.367,0.000,0.000,0
1507860450.659,820.297,823.861,844.081,839.488,0.000,0.000,0
1507860450.661,823.107,827.836,847.028,841.339,0.000,0.000,0
1507860450.663,827.219,828.179,846.959,846.137,0.000,0.000,0
1507860450.665,834.553,826.466,844.355,854.773,0.000,0.000,0
1507860450.667,832.497,822.285,844.149,849.084,0.000,0.000,0
1507860450.669,827.973,819.543,845.246,850.729,0.000,0.000,0
1507860450.671,839.009,815.568,846.342,859.091,0.000,0.000,0
1507860450.673,840.996,811.181,845.588,851.072,0.000,0.000,0
1507860450.675,843.943,812.003,846.548,850.523,0.000,0.000,0
1507860450.677,843.121,815.636,847.782,845.109,0.000,0.000,0
1507860450.679,837.364,819.543,845.726,836.473,0.000,0.000,0
1507860450.681,827.699,822.559,848.604,836.267,0.000,0.000,0
1507860450.683,824.889,827.151,849.290,838.255,0.000,0.000,0
1507860450.685,830.509,827.357,847.508,848.399,0.000,0.000,0
1507860450.687,829.002,825.506,846.548,852.648,0.000,0.000,0
1507860450.689,833.320,824.409,848.467,863.478,0.000,0.000,0
1507860450.691,834.896,821.051,848.467,859.571,0.000,0.000,0
1507860450.693,841.202,821.393,845.109,865.739,0.000,0.000,0
1507860450.695,832.703,823.176,848.604,858.337,0.000,0.000,0
1507860450.697,827.219,821.325,847.850,854.362,0.000,0.000,0
1507860450.699,822.901,817.213,847.508,861.010,0.000,0.000,0
1507860450.701,824.821,820.297,847.508,843.190,0.000,0.000,0
1507860450.703,830.647,822.079,844.081,830.921,0.000,0.000,0
1507860450.705,836.404,826.054,845.177,822.833,0.000,0.000,0
1507860450.707,833.936,829.550,849.906,826.191,0.000,0.000,0
1507860450.709,840.037,833.457,852.305,836.061,0.000,0.000,0
1507860450.711,846.137,827.082,852.031,834.690,0.000,0.000,0
1507860450.713,849.906,828.111,855.390,832.703,0.000,0.000,0
1507860450.715,841.819,830.647,856.281,842.710,0.000,0.000,0
1507860450.717,843.121,830.304,853.402,846.274,0.000,0.000,0
1507860450.719,837.021,826.123,851.277,838.460,0.000,0.000,0
1507860450.721,833.114,824.409,848.262,836.473,0.000,0.000,0
1507860450.723,838.323,821.051,850.181,847.165,0.000,0.000,0
1507860450.725,834.965,817.487,847.850,835.650,0.000,0.000,0
1507860450.727,841.476,815.156,844.149,840.311,0.000,0.000,0
1507860450.729,847.233,820.091,846.891,844.286,0.000,0.000,0
1507860450.731,849.769,828.111,851.963,849.701,0.000,0.000,0
1507860450.733,845.383,828.864,853.402,846.685,0.000,0.000,0
1507860450.735,835.924,825.437,851.963,847.850,0.000,0.000,0
1507860450.737,829.276,822.353,850.318,847.645,0.000,0.000,0
1507860450.739,832.017,818.857,851.483,852.648,0.000,0.000,0
1507860450.741,826.191,820.160,847.782,837.432,0.000,0.000,0
1507860450.743,831.880,823.107,848.056,837.706,0.000,0.000,0
1507860450.745,831.949,830.715,851.483,846.205,0.000,0.000,0
1507860450.747,837.226,834.759,850.729,854.567,0.000,0.000,0
1507860450.749,836.610,832.154,848.673,853.471,0.000,0.000,0
1507860450.751,836.541,829.481,848.536,858.543,0.000,0.000,0
1507860450.753,839.694,828.179,850.044,860.599,0.000,0.000,0
1507860450.755,835.513,825.643,851.757,852.305,0.000,0.000,0
1507860450.757,833.731,825.780,849.906,842.984,0.000,0.000,0
1507860450.759,826.534,827.768,851.894,828.179,0.000,0.000,0
1507860450.761,834.759,827.425,853.128,830.304,0.000,0.000,0
1507860450.763,836.678,822.422,851.963,832.360,0.000,0.000,0
1507860450.765,835.581,824.546,849.838,835.787,0.000,0.000,0
1507860450.767,831.743,825.712,848.193,836.815,0.000,0.000,0
1507860450.769,828.864,821.873,848.124,831.743,0.000,0.000,1
1507860450.771,834.005,819.474,845.520,833.662,0.000,0.000,0
1507860450.773,840.654,820.640,844.834,857.789,0.000,0.000,0
1507860450.775,834.553,824.889,848.124,856.212,0.000,0.000,0
1507860450.777,831.538,830.441,847.782,836.130,0.000,0.000,0
1507860450.779,830.784,833.183,844.903,827.151,0.000,0.000,0
1507860450.781,826.740,825.849,849.016,833.045,0.000,0.000,0
1507860450.783,824.821,822.696,849.358,835.513,0.000,0.000,0
1507860450.785,826.945,828.042,846.342,837.501,0.000,0.000,0
1507860450.787,832.566,832.634,845.109,845.863,0.000,0.000,0
1507860450.789,834.279,835.787,846.342,847.987,0.000,0.000,0
1507860450.791,835.581,826.945,844.834,848.124,0.000,0.000,0
1507860450.793,832.292,823.998,846.479,837.638,0.000,0.000,0
1507860450.795,831.949,820.571,846.068,835.719,0.000,0.000,0
1507860450.797,828.385,818.035,842.504,840.516,0.000,0.000,0
1507860450.799,826.328,819.269,843.052,835.787,0.000,0.000,0
1507860450.801,821.325,821.599,843.601,828.933,0.000,0.000,0
1507860450.803,827.082,822.833,844.766,845.383,0.000,0.000,0
1507860450.805,827.631,820.571,844.423,839.900,0.000,0.000,0
1507860450.807,830.578,816.801,842.504,843.806,0.000,0.000,0
1507860450.809,828.727,813.854,845.177,835.924,0.000,0.000,0
1507860450.811,840.585,817.898,845.109,842.367,0.000,0.000,0
1507860450.813,843.875,821.736,841.682,844.629,0.000,0.000,0
1507860450.815,843.738,821.736,843.943,846.891,0.000,0.000,0
1507860450.817,843.395,821.119,847.165,844.560,0.000,0.000,0
1507860450.819,837.501,823.313,844.560,839.488,0.000,0.000,0
1507860450.821,834.622,824.615,843.121,840.654,0.000,0.000,0
1507860450.823,835.787,823.450,842.504,850.249,0.000,0.000,0
1507860450.825,838.597,827.219,842.230,842.847,0.000,0.000,0
1507860450.827,832.154,826.534,846.411,834.416,0.000,0.000,0
1507860450.829,835.444,826.534,847.028,837.775,0.000,0.000,0
1507860450.831,845.863,827.699,846.959,842.984,0.000,0.000,0
1507860450.833,852.580,819.680,847.165,845.931,0.000,0.000,0
1507860450.835,850.729,814.471,848.604,855.527,0.000,0.000,0
1507860450.837,842.024,816.938,846.754,844.286,0.000,0.000,0
1507860450.839,831.058,821.599,844.560,824.889,0.000,0.000,0
1507860450.841,823.176,824.135,848.536,828.727,0.000,0.000,0
1507860450.843,826.945,830.578,847.713,829.755,0.000,0.000,0
1507860450.845,832.634,831.675,844.492,834.416,0.000,0.000,0
1507860450.847,834.074,829.755,842.710,833.251,0.000,0.000,0
1507860450.849,843.738,826.671,839.557,841.682,0.000,0.000,0
1507860450.851,846.822,821.188,842.436,837.843,0.000,0.000,0
1507860450.853,844.903,820.777,842.915,839.557,0.000,0.000,0
1507860450.855,848.124,821.805,842.436,857.446,0.000,0.000,0
1507860450.857,835.376,823.792,842.710,845.246,0.000,0.000,0
1507860450.859,821.736,826.534,843.601,837.364,0.000,0.000,0
1507860450.861,819.611,829.824,846.068,840.516,0.000,0.000,0
1507860450.863,819.063,827.082,847.576,841.956,0.000,0.000,0
1507860450.865,826.260,828.248,846.205,838.255,0.000,0.000,0
1507860450.867,834.074,827.905,846.274,837.158,0.000,0.000,0
1507860450.869,840.791,821.051,845.451,837.158,0.000,0.000,0
1507860450.871,850.866,814.882,844.629,856.144,0.000,0.000,0
1507860450.873,848.262,816.253,844.081,851.826,0.000,0.000,0
1507860450.875,837.226,820.777,842.641,832.429,0.000,0.000,0
1507860450.877,836.267,824.409,844.903,834.211,0.000,0.000,0
1507860450.879,838.597,824.683,844.972,830.098,0.000,0.000,0
1507860450.881,837.980,827.973,843.669,832.497,0.000,0.000,0
1507860450.883,833.936,825.232,849.906,843.669,0.000,0.000,0
1507860450.885,832.703,824.067,851.483,849.290,0.000,0.000,0
1507860450.887,839.351,823.998,850.866,858.474,0.000,0.000,0
1507860450.889,839.146,823.587,845.246,850.455,0.000,0.000,0
1507860450.891,841.270,823.518,844.903,849.701,0.000,0.000,0
1507860450.893,840.242,826.945,847.576,844.903,0.000,0.000,0
1507860450.895,840.654,825.780,847.645,848.056,0.000,0.000,0
1507860450.897,835.033,827.425,846.137,836.267,0.000,0.000,0
1507860450.899,834.622,830.030,844.629,838.666,0.000,0.000,0
1507860450.901,832.840,829.687,848.124,839.351,0.000,0.000,0
1507860450.903,834.828,827.494,845.109,844.355,0.000,0.000,0
1507860450.905,844.218,822.696,842.847,854.841,0.000,0.000,0
1507860450.907,839.146,817.692,848.399,849.495,0.000,0.000,0
1507860450.909,837.980,814.471,846.205,844.149,0.000,0.000,0
1507860450.911,845.863,812.689,848.124,847.508,0.000,0.000,0
1507860450.913,847.028,821.325,846.000,850.249,0.000,0.000,0
1507860450.915,846.891,823.313,846.959,847.508,0.000,0.000,0
1507860450.917,841.339,828.933,842.298,836.610,0.000,0.000,0
1507860450.919,835.513,832.017,845.451,848.741,0.000,0.000,0
1507860450.921,824.341,826.123,843.738,842.504,0.000,0.000,0
1507860450.923,828.042,827.699,841.613,844.012,0.000,0.000,0
1507860450.925,834.896,833.251,843.738,832.566,0.000,0.000,0
1507860450.927,843.395,835.376,847.233,844.012,0.000,0.000,0
1507860450.929,843.464,834.005,844.355,844.834,0.000,0.000,0
1507860450.931,844.286,832.017,845.520,837.295,0.000,0.000,0
1507860450.933,843.738,830.578,844.012,848.673,0.000,0.000,0
1507860450.935,838.460,830.167,840.585,845.657,0.000,0.000,0
1507860450.937,834.965,825.026,840.996,835.650,0.000,0.000,0
1507860450.939,834.828,820.777,842.710,832.977,0.000,0.000,0
1507860450.941,830.509,823.244,848.947,831.400,0.000,0.000,0
1507860450.943,833.457,831.880,847.233,838.255,0.000,0.000,0
1507860450.945,840.311,834.005,846.891,846.822,0.000,0.000,0
1507860450.947,839.968,829.481,848.536,845.657,0.000,0.000,0
1507860450.949,841.682,825.232,850.181,852.717,0.000,0.000,0
1507860450.951,846.205,824.821,848.741,852.785,0.000,0.000,0
1507860450.953,849.838,826.054,845.863,858.680,0.000,0.000,0
1507860450.955,841.545,827.768,846.959,853.265,0.000,0.000,0
1507860450.957,839.488,827.425,845.314,842.984,0.000,0.000,0
1507860450.959,838.803,826.671,842.298,839.694,0.000,0.000,0
1507860450.961,832.223,824.821,845.109,840.585,0.000,0.000,0
1507860450.963,832.908,824.067,847.233,844.903,0.000,0.000,0
1507860450.965,840.928,823.518,846.137,845.588,0.000,0.000,0
1507860450.967,845.520,824.683,847.165,848.193,0.000,0.000,0
1507860450.969,851.346,827.151,845.863,844.697,0.000,0.000,0
1507860450.971,856.555,826.877,845.177,845.794,0.000,0.000,0
1507860450.973,851.963,826.260,846.068,858.268,0.000,0.000,0
1507860450.975,842.367,833.662,843.806,847.782,0.000,0.000,0
1507860450.977,836.952,835.170,846.274,840.516,0.000,0.000,0
1507860450.979,841.476,834.142,845.314,842.298,0.000,0.000,0
1507860450.981,838.255,834.348,844.149,837.912,0.000,0.000,0
1507860450.983,831.469,830.304,846.754,839.283,0.000,0.000,0
1507860450.985,835.787,826.877,844.903,841.682,0.000,0.000,0
1507860450.987,838.049,818.857,844.218,851.894,0.000,0.000,0
1507860450.989,845.040,821.531,843.943,853.539,0.000,0.000,0
1507860450.991,843.052,830.098,844.766,853.196,0.000,0.000,0
1507860450.993,848.056,836.061,846.617,864.094,0.000,0.000,0
1507860450.995,845.726,837.501,847.987,859.502,0.000,0.000,0
1507860450.997,842.847,838.597,847.713,848.741,0.000,0.000,0
1507860450.999,840.242,839.283,847.165,842.915,0.000,0.000,0
1507860451.001,835.993,829.961,848.124,844.697,0.000,0.000,0
1507860451.003,833.936,825.849,849.701,845.177,0.000,0.000,0
1507860451.005,844.355,826.328,848.262,856.692,0.000,0.000,0
1507860451.007,846.891,827.357,848.467,851.072,0.000,0.000,0
1507860451.009,840.791,826.123,845.726,838.734,0.000,0.000,0
1507860451.011,844.081,823.518,847.096,836.815,0.000,0.000,0
1507860451.013,849.769,818.583,845.383,840.722,0.000,0.000,0
1507860451.015,848.741,818.309,840.996,837.089,0.000,0.000,0
1507860451.017,843.121,820.297,841.133,828.590,0.000,0.000,0
1507860451.019,841.956,823.930,839.831,832.429,0.000,0.000,0
1507860451.021,831.195,824.889,841.065,845.726,0.000,0.000,0
1507860451.023,820.503,823.998,841.202,835.787,0.000,0.000,0
1507860451.025,822.627,830.441,841.065,827.425,0.000,0.000,0
1507860451.027,830.647,829.002,838.392,826.534,0.000,0.000,0
1507860451.029,832.566,824.683,842.161,836.267,0.000,0.000,0
1507860451.031,839.762,821.942,842.436,837.295,0.000,0.000,0
1507860451.033,844.629,823.107,842.161,842.093,0.000,0.000,0
1507860451.035,846.822,825.163,842.161,837.638,0.000,0.000,0
1507860451.037,840.516,826.260,835.924,828.042,0.000,0.000,0
1507860451.039,836.198,816.390,834.279,841.065,0.000,0.000,0
1507860451.041,829.276,810.770,840.996,842.161,0.000,0.000,0
1507860451.043,825.437,815.430,840.448,836.267,0.000,0.000,0
1507860451.045,831.743,822.422,840.242,841.133,0.000,0.000,0
1507860451.047,838.323,828.179,843.532,846.274,0.000,0.000,0
1507860451.049,839.625,830.098,846.342,850.729,0.000,0.000,0
1507860451.051,843.190,831.332,846.000,853.402,0.000,0.000,0
1507860451.053,852.648,829.070,843.258,859.022,0.000,0.000,0
1507860451.055,843.258,823.792,844.012,845.794,0.000,0.000,0
1507860451.057,841.202,817.555,846.959,842.298,0.000,0.000,0
1507860451.059,825.780,818.172,845.451,831.812,0.000,0.000,0
1507860451.061,828.864,820.640,845.588,840.311,0.000,0.000,0
1507860451.063,829.687,823.861,844.012,836.678,0.000,0.000,0
1507860451.065,831.743,826.945,843.669,827.288,0.000,0.000,0
1507860451.067,833.251,825.849,845.383,832.086,0.000,0.000,0
1507860451.069,841.682,824.135,843.875,839.351,0.000,0.000,0
1507860451.071,853.813,821.736,843.258,844.972,0.000,0.000,0
1507860451.073,855.184,821.051,843.875,851.072,0.000,0.000,0
1507860451.075,844.081,820.708,844.012,845.246,0.000,0.000,0
1507860451.077,839.831,824.546,845.040,838.529,0.000,0.000,0
1507860451.079,835.033,829.002,842.573,829.207,0.000,0.000,0
1507860451.081,835.033,830.509,844.492,838.049,0.000,0.000,0
1507860451.083,833.320,825.986,844.766,839.900,0.000,0.000,0
1507860451.085,838.597,820.297,846.068,843.669,0.000,0.000,0
1507860451.087,841.270,819.474,844.423,849.838,0.000,0.000,0
1507860451.089,842.778,822.559,844.218,849.564,0.000,0.000,0
1507860451.091,846.342,822.353,843.190,854.156,0.000,0.000,0
1507860451.093,845.383,821.873,843.464,848.399,0.000,0.000,0
1507860451.095,836.335,819.132,841.750,836.815,0.000,0.000,0
1507860451.097,835.993,818.995,844.149,835.993,0.000,0.000,0
1507860451.099,837.638,821.599,845.588,838.734,0.000,0.000,0
1507860451.101,837.158,822.833,847.850,844.012,0.000,0.000,0
1507860451.103,835.856,813.648,848.878,837.706,0.000,0.000,0
1507860451.105,840.174,815.499,845.177,837.158,0.000,0.000,0
1507860451.107,838.529,813.785,842.436,843.532,0.000,0.000,0
1507860451.109,845.314,815.842,840.996,846.754,0.000,0.000,0
1507860451.111,840.242,823.518,842.298,842.436,0.000,0.000,0
1507860451.113,839.351,829.755,844.903,834.005,0.000,0.000,0
1507860451.115,834.965,830.372,844.972,827.288,0.000,0.000,0
1507860451.117,833.320,829.413,844.629,826.397,0.000,0.000,0
1507860451.119,829.481,825.917,841.339,830.304,0.000,0.000,0
1507860451.121,826.191,826.740,843.875,828.590,0.000,0.000,0
1507860451.123,822.696,826.945,845.109,831.812,0.000,0.000,0
1507860451.125,830.030,828.727,846.479,835.650,0.000,0.000,0
1507860451.127,842.024,828.522,845.794,847.782,0.000,0.000,0
1507860451.129,842.710,823.381,842.093,852.100,0.000,0.000,0
1507860451.131,844.492,818.172,842.367,844.081,0.000,0.000,0
1507860451.133,845.109,818.995,845.109,834.622,0.000,0.000,0
1507860451.135,840.585,818.857,845.383,834.759,0.000,0.000,0
1507860451.137,839.557,820.297,842.641,832.497,0.000,0.000,0
1507860451.139,836.267,821.393,842.024,841.339,0.000,0.000,0
1507860451.141,834.279,824.067,843.190,843.669,0.000,0.000,0
1507860451.143,830.441,828.864,845.246,840.105,0.000,0.000,0
1507860451.145,830.441,831.126,844.423,837.364,0.000,0.000,0
1507860451.147,828.522,827.699,847.508,839.214,0.000,0.000,0
1507860451.149,832.360,821.051,848.262,839.351,0.000,0.000,0
1507860451.151,842.847,821.256,846.617,839.214,0.000,0.000,0
1507860451.153,849.290,821.051,845.109,849.769,0.000,0.000,0
1507860451.155,838.255,822.353,845.109,843.327,0.000,0.000,0
1507860451.157,830.167,829.139,841.887,827.562,0.000,0.000,0
1507860451.159,827.082,832.840,843.464,826.123,0.000,0.000,0
1507860451.161,836.404,833.114,842.504,835.719,0.000,0.000,0
1507860451.163,839.900,825.575,844.972,842.367,0.000,0.000,0
1507860451.165,839.831,823.313,845.177,844.286,0.000,0.000,0
1507860451.167,836.335,822.216,842.024,846.411,0.000,0.000,0
1507860451.169,841.476,825.095,844.972,852.854,0.000,0.000,0
1507860451.171,852.648,825.780,845.177,865.191,0.000,0.000,0
1507860451.173,849.221,829.961,843.464,856.761,0.000,0.000,0
1507860451.175,841.065,828.042,842.984,845.794,0.000,0.000,0
1507860451.177,835.102,827.288,844.492,831.332,0.000,0.000,0
1507860451.179,831.743,823.518,841.407,821.668,0.000,0.000,0
1507860451.181,834.005,816.596,841.476,831.195,0.000,0.000,0
1507860451.183,836.610,815.499,842.436,844.834,0.000,0.000,0
1507860451.185,842.915,824.478,842.778,844.218,0.000,0.000,0
1507860451.187,849.975,831.538,841.613,847.645,0.000,0.000,0
1507860451.189,848.056,834.828,840.379,842.504,0.000,0.000,0
1507860451.191,846.000,835.102,840.859,849.632,0.000,0.000,0
1507860451.193,840.448,835.787,844.218,846.411,0.000,0.000,0
1507860451.195,835.581,832.429,843.669,847.713,0.000,0.000,0
1507860451.197,830.715,829.002,840.928,836.884,0.000,0.000,0
1507860451.199,827.973,827.836,841.613,834.553,0.000,0.000,0
1507860451.201,829.207,827.905,843.806,837.912,0.000,0.000,0
1507860451.203,839.146,827.357,848.056,855.527,0.000,0.000,0
1507860451.205,841.613,823.930,846.548,853.059,0.000,0.000,0
1507860451.207,837.638,822.833,843.738,849.221,0.000,0.000,0
1507860451.209,836.815,826.328,847.028,843.121,0.000,0.000,0
1507860451.211,849.769,828.659,850.660,853.539,0.000,0.000,0
1507860451.213,848.056,830.304,851.346,846.959,0.000,0.000,0
1507860451.215,844.834,828.727,850.455,844.560,0.000,0.000,0
1507860451.217,843.532,829.687,846.754,836.198,0.000,0.000,0
1507860451.219,842.024,829.824,846.685,837.364,0.000,0.000,0
1507860451.221,842.641,825.095,844.492,845.863,0.000,0.000,0
1507860451.223,838.460,822.490,846.068,845.246,0.000,0.000,0
1507860451.225,835.444,822.764,845.177,833.114,0.000,0.000,0
1507860451.227,842.504,822.216,845.794,837.843,0.000,0.000,0
1507860451.229,852.785,822.216,846.137,847.370,0.000,0.000,0
1507860451.231,858.406,827.768,845.794,849.769,0.000,0.000,0
1507860451.233,859.708,831.675,843.121,839.900,0.000,0.000,0
1507860451.235,851.757,832.154,838.803,834.005,0.000,0.000,0
1507860451.237,846.411,831.606,838.049,839.625,0.000,0.000,0
1507860451.239,836.335,828.796,841.065,836.815,0.000,0.000,0
1507860451.241,832.703,828.522,841.133,838.323,0.000,0.000,0
1507860451.243,833.251,830.098,844.560,833.936,0.000,0.000,0
1507860451.245,845.931,827.905,844.286,835.787,0.000,0.000,0
1507860451.247,849.084,826.808,841.750,836.473,0.000,0.000,0
1507860451.249,853.950,825.437,844.629,845.451,0.000,0.000,0
1507860451.251,855.732,824.821,845.177,846.411,0.000,0.000,0
1507860451.253,848.399,824.341,844.012,843.601,0.000,0.000,0
1507860451.255,849.358,824.341,843.395,857.377,0.000,0.000,0
1507860451.257,845.314,825.917,842.161,846.685,0.000,0.000,0
1507860451.259,838.049,830.098,839.488,831.058,0.000,0.000,0
1507860451.261,837.501,829.207,841.065,826.328,0.000,0.000,0
1507860451.263,837.432,827.631,840.242,835.924,0.000,0.000,0
1507860451.265,839.077,824.341,842.298,845.588,0.000,0.000,0
1507860451.267,840.174,823.930,841.476,842.573,0.000,0.000,0
1507860451.269,847.850,825.026,841.956,850.112,0.000,0.000,0
1507860451.271,852.168,828.522,840.859,852.991,0.000,0.000,0
1507860451.273,860.051,830.030,840.996,862.792,0.000,0.000,0
1507860451.275,849.906,829.893,842.093,855.184,0.000,0.000,0
1507860451.277,842.161,828.385,842.504,846.822,0.000,0.000,0
1507860451.279,834.553,825.575,842.641,844.903,0.000,0.000,0
1507860451.281,825.163,825.780,842.641,833.662,0.000,0.000,0
1507860451.283,835.650,826.877,844.149,840.928,0.000,0.000,0
1507860451.285,839.762,825.849,842.710,837.501,0.000,0.000,0
1507860451.287,837.021,822.079,841.750,839.420,0.000,0.000,0
1507860451.289,836.678,811.798,842.436,848.604,0.000,0.000,0
1507860451.291,840.516,817.007,842.367,847.302,0.000,0.000,0
1507860451.293,838.186,817.487,842.161,844.423,0.000,0.000,0
1507860451.295,833.662,819.406,841.682,841.956,0.000,0.000,0
1507860451.297,833.183,824.135,840.859,834.142,0.000,0.000,0
1507860451.299,832.429,825.506,843.464,823.518,0.000,0.000,0
1507860451.301,831.538,826.328,846.685,828.179,0.000,0.000,0
1507860451.303,827.425,823.313,846.822,830.098,0.000,0.000,0
1507860451.305,842.984,821.393,846.685,845.246,0.000,0.000,0
1507860451.307,845.657,821.736,845.931,841.407,0.000,0.000,0
1507860451.309,841.682,828.522,844.903,837.158,0.000,0.000,0
1507860451.311,845.520,828.727,845.177,845.040,0.000,0.000,0
1507860451.313,843.738,824.341,848.878,846.891,0.000,0.000,0
1507860451.315,839.625,825.643,846.959,845.588,0.000,0.000,0
1507860451.317,838.049,827.357,844.560,833.731,0.000,0.000,0
1507860451.319,837.569,827.082,846.068,840.105,0.000,0.000,0
1507860451.321,829.961,828.248,848.467,843.052,0.000,0.000,0
1507860451.323,831.263,828.864,847.233,845.520,0.000,0.000,0
1507860451.325,830.441,830.030,845.109,833.183,0.000,0.000,0
1507860451.327,838.255,831.263,846.822,842.778,0.000,0.000,0
1507860451.329,846.274,826.945,841.956,841.407,0.000,0.000,0
1507860451.331,851.826,823.655,841.476,840.105,0.000,0.000,0
1507860451.333,852.305,821.462,845.931,848.193,0.000,0.000,0
1507860451.335,845.657,822.147,847.028,848.467,0.000,0.000,0
1507860451.337,849.221,825.506,842.436,849.290,0.000,0.000,0
1507860451.339,844.355,826.466,840.654,840.379,0.000,0.000,0
1507860451.341,838.803,824.272,840.311,839.077,0.000,0.000,0
1507860451.343,830.647,827.768,843.327,833.594,0.000,0.000,0
1507860451.345,838.186,829.755,844.766,841.545,0.000,0.000,0
1507860451.347,839.009,827.631,840.516,843.395,0.000,0.000,0
1507860451.349,836.747,822.764,841.476,841.750,0.000,0.000,0
1507860451.351,839.283,821.051,841.270,841.613,0.000,0.000,0
1507860451.353,843.738,818.241,842.093,847.096,0.000,0.000,0
1507860451.355,839.488,818.378,841.819,841.545,0.000,0.000,0
1507860451.357,838.255,816.938,842.298,839.625,0.000,0.000,0
1507860451.359,832.840,813.854,842.436,833.868,0.000,0.000,0
1507860451.361,835.993,818.583,845.246,841.202,0.000,0.000,0
1507860451.363,837.089,820.571,848.810,844.286,0.000,0.000,0
1507860451.365,838.117,825.095,848.399,842.093,0.000,0.000,0
1507860451.367,837.775,829.276,844.012,832.703,0.000,0.000,0
1507860451.369,839.968,825.917,844.629,833.936,0.000,0.000,0
1507860451.371,851.140,824.478,844.972,847.370,0.000,0.000,0
1507860451.373,844.834,827.905,845.794,841.887,0.000,0.000,0
1507860451.375,832.840,824.821,846.137,830.304,0.000,0.000,0
1507860451.377,832.017,819.954,845.109,820.845,0.000,0.000,0
1507860451.379,828.522,820.160,843.875,822.490,0.000,0.000,0
1507860451.381,827.699,822.216,842.367,826.397,0.000,0.000,0
1507860451.383,831.195,824.067,847.439,832.703,0.000,0.000,0
1507860451.385,835.307,821.873,849.153,840.859,0.000,0.000,0
1507860451.387,835.307,820.297,848.056,847.987,0.000,0.000,0
1507860451.389,837.021,819.817,847.919,846.891,0.000,0.000,0
1507860451.391,838.255,823.655,845.794,840.105,0.000,0.000,0
1507860451.393,845.383,825.917,847.028,845.588,0.000,0.000,0
1507860451.395,845.726,821.051,846.754,847.370,0.000,0.000,0
1507860451.397,839.694,822.970,845.451,842.436,0.000,0.000,0
1507860451.399,835.787,826.808,844.286,837.089,0.000,0.000,0
1507860451.401,834.074,828.727,844.012,834.485,0.000,0.000,0
1507860451.403,842.504,829.276,844.903,842.573,0.000,0.000,0
1507860451.405,838.460,828.522,848.467,839.694,0.000,0.000,0
1507860451.407,838.117,830.304,848.810,843.052,0.000,0.000,0
1507860451.409,843.190,829.961,850.798,839.420,0.000,0.000,0
1507860451.411,851.963,827.973,848.056,843.806,0.000,0.000,0
1507860451.413,854.019,825.780,846.548,845.040,0.000,0.000,0
1507860451.415,847.370,823.861,848.193,843.875,0.000,0.000,0
1507860451.417,846.342,819.817,848.810,839.283,0.000,0.000,0
1507860451.419,843.258,821.531,848.330,839.077,0.000,0.000,0
1507860451.421,846.959,822.696,844.423,843.052,0.000,0.000,0
1507860451.423,839.762,825.437,844.286,837.226,0.000,0.000,0
1507860451.425,844.423,825.232,846.205,843.121,0.000,0.000,0
1507860451.427,848.330,824.204,848.673,847.782,0.000,0.000,0
1507860451.429,845.863,825.163,847.850,844.423,0.000,0.000,0
1507860451.431,847.645,826.397,845.451,837.775,0.000,0.000,0
1507860451.433,849.495,825.986,843.669,833.183,0.000,0.000,0
1507860451.435,849.701,822.559,840.996,842.778,0.000,0.000,0
1507860451.437,843.052,819.680,839.762,832.086,0.000,0.000,0
1507860451.439,832.497,820.503,842.367,822.010,0.000,0.000,0
1507860451.441,827.425,825.369,843.190,816.527,0.000,0.000,0
1507860451.443,835.307,826.603,842.710,822.010,0.000,0.000,0
1507860451.445,844.492,825.369,842.367,826.740,0.000,0.000,0
1507860451.447,845.177,821.531,843.395,833.936,0.000,0.000,0
1507860451.449,844.286,817.624,843.258,837.638,0.000,0.000,0
1507860451.451,848.467,816.253,839.625,838.734,0.000,0.000,0
1507860451.453,847.508,818.995,839.146,840.928,0.000,0.000,0
1507860451.455,848.124,822.422,838.255,849.838,0.000,0.000,0
1507860451.457,840.996,822.559,841.613,839.351,0.000,0.000,0
1507860451.459,833.320,821.325,841.819,821.051,0.000,0.000,0
1507860451.461,832.497,822.422,841.682,822.559,0.000,0.000,0
1507860451.463,832.977,825.506,842.778,828.590,0.000,0.000,0
1507860451.465,838.803,829.618,843.532,823.998,0.000,0.000,0
1507860451.467,843.327,823.107,843.327,828.590,0.000,0.000,1
1507860451.469,851.826,821.256,845.246,841.270,0.000,0.000,0
1507860451.471,854.704,821.873,840.791,842.093,0.000,0.000,0
1507860451.473,848.056,823.998,838.666,833.936,0.000,0.000,0
1507860451.475,847.233,825.369,842.573,829.755,0.000,0.000,0
1507860451.477,844.286,820.297,842.778,826.877,0.000,0.000,0
1507860451.479,842.847,817.213,844.218,830.921,0.000,0.000,0
1507860451.481,839.557,819.611,846.891,829.687,0.000,0.000,0
1507860451.483,838.049,823.861,846.068,822.833,0.000,0.000,0
1507860451.485,844.560,826.466,846.685,826.328,0.000,0.000,0
1507860451.487,846.342,826.740,845.314,832.223,0.000,0.000,0
1507860451.489,852.511,825.506,845.520,848.056,0.000,0.000,0
1507860451.491,854.567,825.712,845.657,848.604,0.000,0.000,0
1507860451.493,847.987,826.534,846.342,837.158,0.000,0.000,0
1507860451.495,845.520,827.014,845.177,833.114,0.000,0.000,0
1507860451.497,841.339,823.450,843.464,828.864,0.000,0.000,0
1507860451.499,836.404,821.942,841.270,825.300,0.000,0.000,0
1507860451.501,838.049,821.119,845.040,836.061,0.000,0.000,0
1507860451.503,838.117,818.926,845.726,836.541,0.000,0.000,0
1507860451.505,846.000,820.982,841.819,835.581,0.000,0.000,0
1507860451.507,844.149,824.958,844.423,831.400,0.000,0.000,0
1507860451.509,848.399,824.409,847.576,840.516,0.000,0.000,0
1507860451.511,852.717,823.176,845.794,849.632,0.000,0.000,0
1507860451.513,853.196,822.285,845.794,845.314,0.000,0.000,0
1507860451.515,850.935,821.942,846.274,845.794,0.000,0.000,0
1507860451.517,849.701,824.683,846.068,841.133,0.000,0.000,0
1507860451.519,844.766,828.316,844.286,837.980,0.000,0.000,0
1507860451.521,836.678,826.671,843.395,843.806,0.000,0.000,0
1507860451.523,838.255,820.982,840.996,856.761,0.000,0.000,0
1507860451.525,837.912,822.010,839.351,849.701,0.000,0.000,0
1507860451.527,836.061,827.768,840.996,842.641,0.000,0.000,0
1507860451.529,842.984,828.727,846.205,855.870,0.000,0.000,0
1507860451.531,846.822,826.328,847.919,851.140,0.000,0.000,0
1507860451.533,855.527,826.740,846.685,850.181,0.000,0.000,0
1507860451.535,849.564,822.833,845.863,851.003,0.000,0.000,0
1507860451.537,844.629,823.930,844.766,846.274,0.000,0.000,0
1507860451.539,830.647,826.534,844.972,828.796,0.000,0.000,0
1507860451.541,829.481,824.478,844.903,830.647,0.000,0.000,0
1507860451.543,834.965,822.079,847.233,836.815,0.000,0.000,0
1507860451.545,840.722,822.010,845.109,838.049,0.000,0.000,0
1507860451.547,844.286,824.272,843.121,838.666,0.000,0.000,0
1507860451.549,847.370,823.587,843.875,840.037,0.000,0.000,0
1507860451.551,849.838,823.998,842.641,842.778,0.000,0.000,0
1507860451.553,846.754,826.123,840.996,839.351,0.000,0.000,0
1507860451.555,840.996,825.986,842.367,838.323,0.000,0.000,0
1507860451.557,835.856,824.683,840.516,838.597,0.000,0.000,0
1507860451.559,831.400,826.328,839.488,838.049,0.000,0.000,0
1507860451.561,829.070,821.873,839.420,842.915,0.000,0.000,0
1507860451.563,829.002,818.926,841.202,834.759,0.000,0.000,0
1507860451.565,835.444,821.462,842.710,836.678,0.000,0.000,0
1507860451.567,844.355,823.450,843.395,852.168,0.000,0.000,0
1507860451.569,839.831,825.163,844.012,850.798,0.000,0.000,0
1507860451.571,834.416,830.921,845.177,841.750,0.000,0.000,0
1507860451.573,836.335,832.634,847.576,839.762,0.000,0.000,0
1507860451.575,837.569,828.659,847.096,840.791,0.000,0.000,0
1507860451.577,846.822,825.712,848.604,848.878,0.000,0.000,0
1507860451.579,840.859,826.945,846.137,844.423,0.000,0.000,0
1507860451.581,834.348,823.930,846.342,839.420,0.000,0.000,0
1507860451.583,827.905,821.393,848.262,829.618,0.000,0.000,0
1507860451.585,830.852,819.886,848.124,835.993,0.000,0.000,0
1507860451.587,835.924,820.845,848.741,840.174,0.000,0.000,0
1507860451.589,843.943,820.708,849.084,846.822,0.000,0.000,0
1507860451.591,850.798,823.724,848.604,854.773,0.000,0.000,0
1507860451.593,842.641,825.575,845.383,851.620,0.000,0.000,0
1507860451.595,835.513,821.736,841.887,851.483,0.000,0.000,0
1507860451.597,830.098,821.873,842.024,841.339,0.000,0.000,0
1507860451.599,829.276,824.341,846.548,835.376,0.000,0.000,0
1507860451.601,830.989,825.095,848.124,848.262,0.000,0.000,0
1507860451.603,822.901,821.531,845.794,846.548,0.000,0.000,0
1507860451.605,818.926,819.954,845.520,832.497,0.000,0.000,0
1507860451.607,826.671,822.079,847.713,838.871,0.000,0.000,0
1507860451.609,839.009,824.752,847.645,846.754,0.000,0.000,0
1507860451.611,850.660,823.450,847.028,846.274,0.000,0.000,0
1507860451.613,853.196,817.350,844.492,841.819,0.000,0.000,0
1507860451.615,843.601,814.539,844.903,835.719,0.000,0.000,0
1507860451.617,833.662,818.652,844.629,826.397,0.000,0.000,0
1507860451.619,828.522,822.216,843.806,824.615,0.000,0.000,0
1507860451.621,825.232,822.422,844.972,829.550,0.000,0.000,0
1507860451.623,829.139,824.272,844.012,836.061,0.000,0.000,0
1507860451.625,835.376,822.901,839.214,832.703,0.000,0.000,0
1507860451.627,839.762,822.216,841.682,840.791,0.000,0.000,0
1507860451.629,839.488,823.587,842.504,833.936,0.000,0.000,0
1507860451.631,838.392,823.792,841.956,831.538,0.000,0.000,0
1507860451.633,839.214,824.683,844.218,842.573,0.000,0.000,0
1507860451.635,836.267,823.587,843.806,845.109,0.000,0.000,0
1507860451.637,829.687,823.107,843.258,826.877,0.000,0.000,0
1507860451.639,831.332,822.559,843.806,823.381,0.000,0.000,0
1507860451.641,830.372,822.627,839.557,825.369,0.000,0.000,0
1507860451.643,828.864,821.873,845.863,827.768,0.000,0.000,0
1507860451.645,834.690,820.982,845.931,832.017,0.000,0.000,0
1507860451.647,837.364,821.393,844.492,835.993,0.000,0.000,0
1507860451.649,842.778,815.705,845.383,833.183,0.000,0.000,0
1507860451.651,848.262,810.701,844.218,837.432,0.000,0.000,0
1507860451.653,846.548,812.072,842.161,839.831,0.000,0.000,0
1507860451.655,847.508,819.474,843.669,839.009,0.000,0.000,0
1507860451.657,842.161,822.079,840.996,834.690,0.000,0.000,0
1507860451.659,841.339,822.559,843.052,843.601,0.000,0.000,0
1507860451.661,838.940,823.381,844.218,837.226,0.000,0.000,0
1507860451.663,835.856,827.082,844.629,830.304,0.000,0.000,0
1507860451.665,843.738,830.304,847.233,831.126,0.000,0.000,0
1507860451.667,847.850,835.856,848.604,840.722,0.000,0.000,0
1507860451.669,838.734,833.731,848.262,841.202,0.000,0.000,0
1507860451.671,844.149,826.603,847.439,841.613,0.000,0.000,0
1507860451.673,843.875,824.821,845.931,831.400,0.000,0.000,0
1507860451.675,846.274,823.039,848.330,838.666,0.000,0.000,0
1507860451.677,848.878,822.010,846.479,846.068,0.000,0.000,0
1507860451.679,840.105,822.970,843.052,841.065,0.000,0.000,0
1507860451.681,834.622,821.531,841.339,836.815,0.000,0.000,0
1507860451.683,836.541,822.970,841.339,838.255,0.000,0.000,0
1507860451.685,840.105,824.135,843.601,835.856,0.000,0.000,0
1507860451.687,839.351,823.587,842.641,831.332,0.000,0.000,0
1507860451.689,844.560,819.817,840.791,836.747,0.000,0.000,0
1507860451.691,848.262,820.571,839.146,833.457,0.000,0.000,0
1507860451.693,853.608,819.269,838.666,835.719,0.000,0.000,0
1507860451.695,855.253,816.664,842.230,841.407,0.000,0.000,0
1507860451.697,847.439,817.281,840.996,833.799,0.000,0.000,0
1507860451.699,834.348,819.954,841.407,823.244,0.000,0.000,0
1507860451.701,833.388,824.615,842.710,824.409,0.000,0.000,0
1507860451.703,834.074,828.727,841.887,831.126,0.000,0.000,0
1507860451.705,836.198,832.223,841.476,834.005,0.000,0.000,0
1507860451.707,838.255,827.562,841.270,846.205,0.000,0.000,0
1507860451.709,841.065,820.708,842.847,848.330,0.000,0.000,0
1507860451.711,848.124,819.543,842.641,843.738,0.000,0.000,0
1507860451.713,853.608,818.720,841.682,839.831,0.000,0.000,0
1507860451.715,848.536,819.337,846.068,842.298,0.000,0.000,0
1507860451.717,842.641,823.381,843.532,836.678,0.000,0.000,0
1507860451.719,833.936,829.207,842.641,825.986,0.000,0.000,0
1507860451.721,831.263,828.796,845.383,830.989,0.000,0.000,0
1507860451.723,837.912,823.998,844.903,837.158,0.000,0.000,0
1507860451.725,843.052,827.014,843.601,834.005,0.000,0.000,0
1507860451.727,840.037,830.030,845.588,838.803,0.000,0.000,0
1507860451.729,837.295,834.690,845.657,839.214,0.000,0.000,0
1507860451.731,849.084,832.977,844.834,832.360,0.000,0.000,0
1507860451.733,846.479,824.546,846.548,831.606,0.000,0.000,0
1507860451.735,838.460,820.091,843.052,834.690,0.000,0.000,0
1507860451.737,834.485,821.599,838.871,827.905,0.000,0.000,0
1507860451.739,825.369,828.659,840.379,810.701,0.000,0.000,0
1507860451.741,822.627,829.344,840.105,814.128,0.000,0.000,0
1507860451.743,823.518,832.086,841.476,820.091,0.000,0.000,0
1507860451.745,828.179,834.074,843.532,825.780,0.000,0.000,0
1507860451.747,833.114,835.856,845.451,831.675,0.000,0.000,0
1507860451.749,843.258,831.606,846.685,835.033,0.000,0.000,0
1507860451.751,845.246,831.880,845.314,825.232,0.000,0.000,0
1507860451.753,841.956,832.908,842.641,814.471,0.000,0.000,0
1507860451.755,839.214,832.360,844.355,823.655,0.000,0.000,0
1507860451.757,844.012,830.647,842.915,834.279,0.000,0.000,0
1507860451.759,835.102,827.288,841.887,833.662,0.000,0.000,0
1507860451.761,829.002,826.328,841.956,826.466,0.000,0.000,0
1507860451.763,824.478,827.836,845.109,819.954,0.000,0.000,0
1507860451.765,831.675,826.191,846.068,822.970,0.000,0.000,0
1507860451.767,838.323,819.611,846.479,835.787,0.000,0.000,0
1507860451.769,829.481,821.873,843.875,822.901,0.000,0.000,0
1507860451.771,832.497,820.228,845.314,815.910,0.000,0.000,0
1507860451.773,841.819,817.213,847.439,818.995,0.000,0.000,0
1507860451.775,844.903,810.770,851.620,825.026,0.000,0.000,0
1507860451.777,848.330,808.234,850.112,837.295,0.000,0.000,0
1507860451.779,835.444,815.156,847.028,831.880,0.000,0.000,0
1507860451.781,828.864,825.026,844.834,827.288,0.000,0.000,0
1507860451.783,825.095,829.002,846.754,824.889,0.000,0.000,0
1507860451.785,829.207,828.179,846.479,823.176,0.000,0.000,0
1507860451.787,839.900,821.873,849.084,836.061,0.000,0.000,0
1507860451.789,836.130,815.705,846.068,833.799,0.000,0.000,0
1507860451.791,837.843,815.773,845.726,834.690,0.000,0.000,0
1507860451.793,844.081,817.350,847.096,841.339,0.000,0.000,0
1507860451.795,838.323,822.627,843.806,839.968,0.000,0.000,0
1507860451.797,834.142,827.905,842.778,829.207,0.000,0.000,0
1507860451.799,832.566,832.703,843.190,819.474,0.000,0.000,0
1507860451.801,831.606,834.211,845.794,819.269,0.000,0.000,0
1507860451.803,837.843,831.263,844.081,832.497,0.000,0.000,0
1507860451.805,837.089,825.643,845.657,837.980,0.000,0.000,0
1507860451.807,832.634,823.655,848.399,827.699,0.000,0.000,0
1507860451.809,838.597,820.777,850.112,833.251,0.000,0.000,0
1507860451.811,848.467,819.817,849.358,842.915,0.000,0.000,0
1507860451.813,841.750,817.555,849.084,842.504,0.000,0.000,0
1507860451.815,835.993,816.870,849.495,838.255,0.000,0.000,0
1507860451.817,834.828,815.910,846.411,833.662,0.000,0.000,0
1507860451.819,831.195,815.773,849.632,832.908,0.000,0.000,0
1507860451.821,830.921,816.733,847.645,845.314,0.000,0.000,0
1507860451.823,829.961,820.160,846.411,843.738,0.000,0.000,0
1507860451.825,837.775,823.792,846.274,845.040,0.000,0.000,0
1507860451.827,832.634,823.792,844.697,835.239,0.000,0.000,0
1507860451.829,827.357,824.409,843.738,827.288,0.000,0.000,0
1507860451.831,831.675,825.437,844.218,832.017,0.000,0.000,0
1507860451.833,840.311,821.531,843.327,833.183,0.000,0.000,0
1507860451.835,840.791,819.132,842.504,838.940,0.000,0.000,0
1507860451.837,834.690,816.184,840.859,826.740,0.000,0.000,0
1507860451.839,825.780,812.483,840.585,814.402,0.000,0.000,0
1507860451.841,819.817,817.075,846.068,803.847,0.000,0.000,0
1507860451.843,827.219,822.627,845.863,810.016,0.000,0.000,0
1507860451.845,836.061,827.014,840.722,820.091,0.000,0.000,0
1507860451.847,839.077,828.042,841.065,821.256,0.000,0.000,0
1507860451.849,837.364,827.562,843.395,831.400,0.000,0.000,0
1507860451.851,838.049,826.877,843.052,834.074,0.000,0.000,0
1507860451.853,848.262,826.466,840.928,841.545,0.000,0.000,0
1507860451.855,839.694,823.930,839.762,833.114,0.000,0.000,0
1507860451.857,828.042,824.135,840.996,816.801,0.000,0.000,0
1507860451.859,830.030,825.643,844.286,820.845,0.000,0.000,0
1507860451.861,833.594,825.506,847.370,828.727,0.000,0.000,0
1507860451.863,833.936,823.244,848.810,832.840,0.000,0.000,0
1507860451.865,836.335,818.446,847.713,831.058,0.000,0.000,0
1507860451.867,835.444,813.169,845.588,831.880,0.000,0.000,0
1507860451.869,837.638,813.443,848.878,832.840,0.000,0.000,0
1507860451.871,851.209,815.499,844.972,843.669,0.000,0.000,0
1507860451.873,845.177,818.995,843.943,840.174,0.000,0.000,0
1507860451.875,835.444,818.309,845.246,837.775,0.000,0.000,0
1507860451.877,834.965,821.942,845.794,828.316,0.000,0.000,0
1507860451.879,834.142,821.256,846.891,826.808,0.000,0.000,0
1507860451.881,830.989,818.172,847.919,832.497,0.000,0.000,0
1507860451.883,834.142,822.216,846.754,835.856,0.000,0.000,0
1507860451.885,845.451,822.559,845.863,846.137,0.000,0.000,0
1507860451.887,835.307,823.861,844.423,842.367,0.000,0.000,0
1507860451.889,828.590,826.877,843.395,835.581,0.000,0.000,0
1507860451.891,838.049,830.441,844.972,833.525,0.000,0.000,0
1507860451.893,852.168,830.441,843.327,835.924,0.000,0.000,0
1507860451.895,850.112,830.235,839.557,828.727,0.000,0.000,0
1507860451.897,846.274,830.647,838.803,816.047,0.000,0.000,0
1507860451.899,831.606,826.054,843.258,825.917,0.000,0.000,0
1507860451.901,818.926,822.764,844.972,832.017,0.000,0.000,0
1507860451.903,822.010,820.365,845.383,831.538,0.000,0.000,0
1507860451.905,822.490,818.583,844.492,823.998,0.000,0.000,0
1507860451.907,831.263,819.337,845.314,834.965,0.000,0.000,0
1507860451.909,839.831,817.624,845.109,838.803,0.000,0.000,0
1507860451.911,843.532,820.434,847.165,833.525,0.000,0.000,0
1507860451.913,844.355,819.680,845.451,829.824,0.000,0.000,0
1507860451.915,837.843,818.515,846.274,823.176,0.000,0.000,0
1507860451.917,835.924,820.640,847.850,817.281,0.000,0.000,0
1507860451.919,839.488,821.188,847.439,828.796,0.000,0.000,0
1507860451.921,840.242,821.188,847.165,835.307,0.000,0.000,0
1507860451.923,834.553,824.683,848.467,829.276,0.000,0.000,0
1507860451.925,835.307,827.425,849.153,817.555,0.000,0.000,0
1507860451.927,840.928,820.091,848.741,829.618,0.000,0.000,0
1507860451.929,842.641,819.063,848.947,836.335,0.000,0.000,0
1507860451.931,848.810,819.132,846.959,840.791,0.000,0.000,0
1507860451.933,852.168,819.611,846.274,843.464,0.000,0.000,0
1507860451.935,844.766,818.241,849.975,840.174,0.000,0.000,0
1507860451.937,841.750,820.023,849.084,841.476,0.000,0.000,0
1507860451.939,832.977,819.063,847.439,829.207,0.000,0.000,0
1507860451.941,828.864,818.446,847.645,823.381,0.000,0.000,0
1507860451.943,831.263,821.942,846.479,819.200,0.000,0.000,0
1507860451.945,841.956,824.683,847.028,830.989,0.000,0.000,0
1507860451.947,845.177,825.095,845.726,836.952,0.000,0.000,0
1507860451.949,845.726,824.615,845.588,838.597,0.000,0.000,0
1507860451.951,858.268,826.191,846.754,853.471,0.000,0.000,0
1507860451.953,848.124,826.740,843.190,837.912,0.000,0.000,0
1507860451.955,829.002,823.450,849.016,837.912,0.000,0.000,0
1507860451.957,825.575,824.752,848.536,832.908,0.000,0.000,0
1507860451.959,830.372,822.833,854.567,835.993,0.000,0.000,0
1507860451.961,829.413,823.244,851.346,832.703,0.000,0.000,0
1507860451.963,827.973,823.450,850.318,830.647,0.000,0.000,0
1507860451.965,832.771,821.051,847.987,832.360,0.000,0.000,0
1507860451.967,838.049,821.256,846.411,833.594,0.000,0.000,0
1507860451.969,838.803,821.668,846.548,838.666,0.000,0.000,0
1507860451.971,845.383,818.926,850.318,840.791,0.000,0.000,0
1507860451.973,852.443,819.611,849.701,853.950,0.000,0.000,0
1507860451.975,841.065,817.829,846.274,848.056,0.000,0.000,0
1507860451.977,828.796,815.430,844.766,833.388,0.000,0.000,0
1507860451.979,827.425,814.882,846.822,829.002,0.000,0.000,0
1507860451.981,827.973,812.141,849.495,822.353,0.000,0.000,0
1507860451.983,829.413,816.596,849.016,822.833,0.000,0.000,0
1507860451.985,836.130,822.285,847.782,833.114,0.000,0.000,0
1507860451.987,834.965,827.357,847.233,831.469,0.000,0.000,0
1507860451.989,832.703,821.942,844.355,823.655,0.000,0.000,0
1507860451.991,837.089,821.805,849.290,824.546,0.000,0.000,0
1507860451.993,848.193,825.780,849.564,833.114,0.000,0.000,0
1507860451.995,844.423,825.369,848.810,830.304,0.000,0.000,0
1507860451.997,835.033,827.905,846.411,821.119,0.000,0.000,0
1507860451.999,828.248,831.880,847.576,812.552,0.000,0.000,0
1507860452.001,831.812,835.170,848.467,829.961,0.000,0.000,0
1507860452.003,838.734,834.553,849.975,830.989,0.000,0.000,0
1507860452.005,842.915,834.142,849.084,832.497,0.000,0.000,0
1507860452.007,841.819,834.965,848.810,838.597,0.000,0.000,0
1507860452.009,847.987,832.292,851.826,842.915,0.000,0.000,0
1507860452.011,862.381,832.840,853.676,845.657,0.000,0.000,0
1507860452.013,864.643,828.179,851.963,849.427,0.000,0.000,0
1507860452.015,854.019,824.889,853.128,847.165,0.000,0.000,0
1507860452.017,855.116,823.313,852.031,849.838,0.000,0.000,0
1507860452.019,847.508,821.599,849.358,839.968,0.000,0.000,0
1507860452.021,842.367,825.437,850.112,836.884,0.000,0.000,0
1507860452.023,838.460,828.316,852.991,829.687,0.000,0.000,0
1507860452.025,852.443,830.784,852.785,830.372,0.000,0.000,0
1507860452.027,854.910,827.631,853.265,833.251,0.000,0.000,0
1507860452.029,856.281,826.534,853.265,837.364,0.000,0.000,0
1507860452.031,866.014,827.425,851.140,847.165,0.000,0.000,0
1507860452.033,862.107,827.836,850.249,847.508,0.000,0.000,0
1507860452.035,854.225,827.905,846.822,839.488,0.000,0.000,1
1507860452.037,848.878,824.067,844.286,828.864,0.000,0.000,0
1507860452.039,847.508,824.067,845.246,835.787,0.000,0.000,0
1507860452.041,844.972,827.357,846.959,843.669,0.000,0.000,0
1507860452.043,839.420,826.671,849.769,837.775,0.000,0.000,0
1507860452.045,842.984,828.453,847.987,837.432,0.000,0.000,0
1507860452.047,846.342,824.546,848.604,840.037,0.000,0.000,0
1507860452.049,856.144,820.640,848.467,857.789,0.000,0.000,0
1507860452.051,856.898,821.462,847.439,861.901,0.000,0.000,0
1507860452.053,845.040,821.462,844.560,840.996,0.000,0.000,0
1507860452.055,830.852,825.506,846.891,826.054,0.000,0.000,0
1507860452.057,831.606,827.425,848.262,829.276,0.000,0.000,0
1507860452.059,828.796,829.550,845.520,835.993,0.000,0.000,0
1507860452.061,827.082,828.659,844.560,832.360,0.000,0.000,0
1507860452.063,825.437,827.082,846.411,832.703,0.000,0.000,0
1507860452.065,833.799,829.618,846.274,833.662,0.000,0.000,0
1507860452.067,838.666,830.578,847.233,835.993,0.000,0.000,0
1507860452.069,837.364,828.659,847.439,837.638,0.000,0.000,0
1507860452.071,840.996,827.699,844.629,834.690,0.000,0.000,0
1507860452.073,848.056,824.409,846.205,836.473,0.000,0.000,0
1507860452.075,847.233,827.699,845.863,835.170,0.000,0.000,0
1507860452.077,845.726,817.829,848.399,834.142,0.000,0.000,0
1507860452.079,842.367,807.617,850.592,834.416,0.000,0.000,0
1507860452.081,844.697,808.028,844.697,838.117,0.000,0.000,0
1507860452.083,840.791,817.281,846.342,833.114,0.000,0.000,0
1507860452.085,842.573,825.780,846.959,842.573,0.000,0.000,0
1507860452.087,837.364,832.771,846.411,842.024,0.000,0.000,0
1507860452.089,839.214,836.061,846.617,824.615,0.000,0.000,0
1507860452.091,845.451,835.239,849.153,833.183,0.000,0.000,0
1507860452.093,852.785,832.703,849.221,834.279,0.000,0.000,0
1507860452.095,849.838,833.662,846.137,830.784,0.000,0.000,0
1507860452.097,838.734,831.332,849.221,828.042,0.000,0.000,0
1507860452.099,832.703,831.400,848.193,823.587,0.000,0.000,0
1507860452.101,828.248,832.154,844.149,824.958,0.000,0.000,0
1507860452.103,831.263,831.469,845.383,829.824,0.000,0.000,0
1507860452.105,841.887,830.921,846.342,829.413,0.000,0.000,0
1507860452.107,854.773,826.740,845.040,849.290,0.000,0.000,0
1507860452.109,850.181,819.611,844.149,838.186,0.000,0.000,0
1507860452.111,843.738,822.490,843.258,832.154,0.000,0.000,0
1507860452.113,842.161,823.107,844.492,836.198,0.000,0.000,0
1507860452.115,838.803,818.857,846.891,839.009,0.000,0.000,0
1507860452.117,839.146,819.680,845.794,844.081,0.000,0.000,0
1507860452.119,835.102,819.337,846.685,833.799,0.000,0.000,0
1507860452.121,828.111,818.789,847.028,818.583,0.000,0.000,0
1507860452.123,835.239,819.954,847.919,819.817,0.000,0.000,0
1507860452.125,845.863,822.353,847.165,834.690,0.000,0.000,0
1507860452.127,843.121,822.559,846.754,838.117,0.000,0.000,0
1507860452.129,845.451,819.886,842.436,827.219,0.000,0.000,0
1507860452.131,848.741,820.365,845.177,827.219,0.000,0.000,0
1507860452.133,849.906,820.640,846.822,828.453,0.000,0.000,0
1507860452.135,846.411,822.147,848.193,829.961,0.000,0.000,0
1507860452.137,838.186,825.712,841.613,824.204,0.000,0.000,0
1507860452.139,837.980,828.042,839.694,818.446,0.000,0.000,0
1507860452.141,837.843,827.357,846.274,832.703,0.000,0.000,0
1507860452.143,840.379,825.506,848.262,833.045,0.000,0.000,0
1507860452.145,833.662,825.643,844.355,823.655,0.000,0.000,0
1507860452.147,839.283,826.740,847.645,827.562,0.000,0.000,0
1507860452.149,844.218,823.792,848.330,830.372,0.000,0.000,0
1507860452.151,852.854,821.256,849.016,846.959,0.000,0.000,0
1507860452.153,846.548,819.680,847.096,843.327,0.000,0.000,0
1507860452.155,843.190,817.213,845.520,845.177,0.000,0.000,0
1507860452.157,840.791,822.147,845.588,836.815,0.000,0.000,0
1507860452.159,834.211,824.409,844.972,826.603,0.000,0.000,0
1507860452.161,838.323,825.300,847.096,823.518,0.000,0.000,0
1507860452.163,841.407,821.736,848.673,829.755,0.000,0.000,0
1507860452.165,840.174,817.692,850.249,827.082,0.000,0.000,0
1507860452.167,840.996,820.571,847.919,832.360,0.000,0.000,0
1507860452.169,843.669,825.712,847.645,833.936,0.000,0.000,0
1507860452.171,852.443,823.039,846.205,844.629,0.000,0.000,0
1507860452.173,849.290,811.318,849.769,844.012,0.000,0.000,0
1507860452.175,843.806,808.439,846.891,841.682,0.000,0.000,0
1507860452.177,839.009,813.648,845.863,832.634,0.000,0.000,0
1507860452.179,837.706,822.010,844.012,829.481,0.000,0.000,0
1507860452.181,834.828,827.082,844.012,825.986,0.000,0.000,0
1507860452.183,833.868,829.413,845.520,825.095,0.000,0.000,0
1507860452.185,843.532,828.659,843.258,831.332,0.000,0.000,0
1507860452.187,841.613,828.453,845.383,833.320,0.000,0.000,0
1507860452.189,839.762,827.288,844.560,827.494,0.000,0.000,0
1507860452.191,844.286,825.780,846.548,825.095,0.000,0.000,0
1507860452.193,855.595,819.543,847.096,834.553,0.000,0.000,0
1507860452.195,848.262,814.128,848.330,834.348,0.000,0.000,0
1507860452.197,844.834,819.817,847.028,829.550,0.000,0.000,0
1507860452.199,841.750,824.341,846.342,827.357,0.000,0.000,0
1507860452.201,845.383,825.437,848.810,830.921,0.000,0.000,0
1507860452.203,849.358,822.696,848.262,842.024,0.000,0.000,0
1507860452.205,846.411,819.200,846.342,835.924,0.000,0.000,0
1507860452.207,839.762,817.898,843.875,834.142,0.000,0.000,0
1507860452.209,846.617,819.749,842.847,839.146,0.000,0.000,0
1507860452.211,852.648,822.490,843.258,839.968,0.000,0.000,0
1507860452.213,856.761,825.575,842.093,836.198,0.000,0.000,0
1507860452.215,852.168,826.466,841.476,823.176,0.000,0.000,0
1507860452.217,839.009,825.437,838.940,809.467,0.000,0.000,0
1507860452.219,831.400,822.764,839.900,811.729,0.000,0.000,0
1507860452.221,831.469,822.216,840.379,818.446,0.000,0.000,0
1507860452.223,832.429,822.901,840.859,824.272,0.000,0.000,0
1507860452.225,837.158,819.886,838.666,817.487,0.000,0.000,0
1507860452.227,835.307,816.596,841.613,817.350,0.000,0.000,0
1507860452.229,837.158,814.677,840.722,823.244,0.000,0.000,0
1507860452.231,840.928,816.596,842.024,825.643,0.000,0.000,0
1507860452.233,842.778,813.923,843.806,824.821,0.000,0.000,0
1507860452.235,840.516,812.826,840.311,825.300,0.000,0.000,0
1507860452.237,837.843,820.914,840.722,812.552,0.000,0.000,0
1507860452.239,839.831,826.534,841.545,819.474,0.000,0.000,0
1507860452.241,840.174,830.921,844.766,820.777,0.000,0.000,0
1507860452.243,837.158,837.021,845.246,807.206,0.000,0.000,0
1507860452.245,840.791,838.940,847.302,817.555,0.000,0.000,0
1507860452.247,844.972,832.703,848.536,827.836,0.000,0.000,0
1507860452.249,851.757,828.590,847.302,825.575,0.000,0.000,0
1507860452.251,852.854,825.712,846.000,825.163,0.000,0.000,0
1507860452.253,852.511,824.958,843.943,830.372,0.000,0.000,0
1507860452.255,846.274,826.808,843.738,827.562,0.000,0.000,0
1507860452.257,839.283,828.864,844.355,814.402,0.000,0.000,0
1507860452.259,835.170,830.372,845.726,818.515,0.000,0.000,0
1507860452.261,833.320,826.671,841.202,819.063,0.000,0.000,0
1507860452.263,830.441,824.615,839.831,817.829,0.000,0.000,0
1507860452.265,836.747,824.272,839.146,821.805,0.000,0.000,0
1507860452.267,840.859,823.244,842.367,829.618,0.000,0.000,0
1507860452.269,850.592,823.244,841.545,840.859,0.000,0.000,0
1507860452.271,857.515,825.232,841.613,841.545,0.000,0.000,0
1507860452.273,853.402,819.817,844.629,840.379,0.000,0.000,0
1507860452.275,849.221,813.580,844.149,841.476,0.000,0.000,0
1507860452.277,844.903,810.496,845.520,838.049,0.000,0.000,0
1507860452.279,836.267,813.580,846.000,838.049,0.000,0.000,0
1507860452.281,832.223,820.777,844.903,836.610,0.000,0.000,0
1507860452.283,835.513,825.095,844.903,836.815,0.000,0.000,0
1507860452.285,839.488,827.357,844.629,834.553,0.000,0.000,0
1507860452.287,841.819,826.808,846.137,837.843,0.000,0.000,0
1507860452.289,842.298,827.082,847.713,845.794,0.000,0.000,0
1507860452.291,848.878,826.191,848.330,853.745,0.000,0.000,0
1507860452.293,852.443,822.901,850.181,848.262,0.000,0.000,0
1507860452.295,845.794,823.039,848.399,840.928,0.000,0.000,0
1507860452.297,844.560,825.437,844.423,836.061,0.000,0.000,0
1507860452.299,840.242,821.119,843.532,824.615,0.000,0.000,0
1507860452.301,832.017,816.184,842.778,815.636,0.000,0.000,0
1507860452.303,841.407,814.951,843.738,825.369,0.000,0.000,0
1507860452.305,842.710,821.942,844.560,817.213,0.000,0.000,0
1507860452.307,841.202,825.643,841.339,812.003,0.000,0.000,0
1507860452.309,848.604,827.905,843.258,821.599,0.000,0.000,0
1507860452.311,856.829,826.397,839.625,820.160,0.000,0.000,0
1507860452.313,858.406,827.219,839.283,822.079,0.000,0.000,0
1507860452.315,847.508,829.824,841.065,823.930,0.000,0.000,0
1507860452.317,841.270,833.045,843.258,820.091,0.000,0.000,0
1507860452.319,841.270,832.223,840.859,826.466,0.000,0.000,0
1507860452.321,838.597,829.893,840.654,825.300,0.000,0.000,0
1507860452.323,834.828,827.562,841.407,820.914,0.000,0.000,0
1507860452.325,841.956,828.659,846.068,823.244,0.000,0.000,0
1507860452.327,851.963,825.163,847.850,833.731,0.000,0.000,0
1507860452.329,852.100,826.740,845.109,834.142,0.000,0.000,0
1507860452.331,854.019,827.151,843.190,820.091,0.000,0.000,0
1507860452.333,853.745,821.942,841.613,818.241,0.000,0.000,0
1507860452.335,853.334,815.910,846.274,827.425,0.000,0.000,0
1507860452.337,850.112,809.399,845.177,832.977,0.000,0.000,0
1507860452.339,835.376,808.851,839.488,818.995,0.000,0.000,0
1507860452.341,820.845,816.596,838.255,806.657,0.000,0.000,0
1507860452.343,828.659,825.849,842.161,817.555,0.000,0.000,0
1507860452.345,842.161,830.235,843.738,822.422,0.000,0.000,0
1507860452.347,842.573,828.796,843.943,815.568,0.000,0.000,0
1507860452.349,840.791,825.986,843.601,822.285,0.000,0.000,0
1507860452.351,846.617,826.260,841.750,835.787,0.000,0.000,0
1507860452.353,841.956,823.998,844.560,833.183,0.000,0.000,0
1507860452.355,835.376,822.833,842.710,832.634,0.000,0.000,0
1507860452.357,827.425,823.861,841.613,820.845,0.000,0.000,0
1507860452.359,833.799,823.724,844.355,818.720,0.000,0.000,0
1507860452.361,838.323,825.369,845.314,812.415,0.000,0.000,0
1507860452.363,841.407,824.683,844.903,817.144,0.000,0.000,0
1507860452.365,844.218,821.942,844.081,817.829,0.000,0.000,0
1507860452.367,843.258,825.300,844.697,820.571,0.000,0.000,0
1507860452.369,845.863,822.353,843.532,836.335,0.000,0.000,0
1507860452.371,844.766,821.805,842.504,830.715,0.000,0.000,0
1507860452.373,842.298,821.393,843.052,820.503,0.000,0.000,0
1507860452.375,838.392,826.945,845.520,818.720,0.000,0.000,0
1507860452.377,833.457,826.740,843.532,818.172,0.000,0.000,0
1507860452.379,830.578,821.119,842.093,818.583,0.000,0.000,0
1507860452.381,834.211,815.910,843.601,821.051,0.000,0.000,0
1507860452.383,836.198,815.842,842.641,819.200,0.000,0.000,0
1507860452.385,840.859,817.144,843.806,815.362,0.000,0.000,0
1507860452.387,846.617,817.898,842.984,833.045,0.000,0.000,0
1507860452.389,842.573,819.954,841.545,830.167,0.000,0.000,0
1507860452.391,839.009,822.422,839.420,823.792,0.000,0.000,0
1507860452.393,843.464,825.643,842.436,829.481,0.000,0.000,0
1507860452.395,839.146,825.506,844.423,830.921,0.000,0.000,0
1507860452.397,831.538,822.353,844.972,820.297,0.000,0.000,0
1507860452.399,827.905,817.007,841.133,817.075,0.000,0.000,0
1507860452.401,832.634,813.648,841.065,830.098,0.000,0.000,0
1507860452.403,832.292,813.854,843.738,823.792,0.000,0.000,0
1507860452.405,839.694,821.393,844.834,823.450,0.000,0.000,0
1507860452.407,833.457,825.849,846.000,820.228,0.000,0.000,0
1507860452.409,839.557,829.344,847.782,824.958,0.000,0.000,0
1507860452.411,845.109,827.562,846.822,827.425,0.000,0.000,0
1507860452.413,842.984,822.422,845.451,827.151,0.000,0.000,0
1507860452.415,839.283,814.402,846.137,829.755,0.000,0.000,0
1507860452.417,837.706,813.443,847.782,833.114,0.000,0.000,0
1507860452.419,837.980,815.362,847.096,832.497,0.000,0.000,0
1507860452.421,834.005,815.362,843.121,835.170,0.000,0.000,0
1507860452.423,831.058,815.568,844.834,830.441,0.000,0.000,0
1507860452.425,827.768,820.228,846.617,827.014,0.000,0.000,0
1507860452.427,834.211,821.668,848.673,834.211,0.000,0.000,0
1507860452.429,843.806,822.901,846.891,830.167,0.000,0.000,0
1507860452.431,845.314,820.023,843.601,823.244,0.000,0.000,0
1507860452.433,844.492,817.281,842.161,825.369,0.000,0.000,0
1507860452.435,840.722,819.474,843.806,832.360,0.000,0.000,0
1507860452.437,840.242,824.409,844.355,826.808,0.000,0.000,0
1507860452.439,839.488,822.216,842.367,822.490,0.000,0.000,0
1507860452.441,839.420,820.708,845.246,820.982,0.000,0.000,0
1507860452.443,838.460,820.914,846.411,819.132,0.000,0.000,0
1507860452.445,841.133,823.861,843.601,819.749,0.000,0.000,0
1507860452.447,843.875,829.139,848.056,821.325,0.000,0.000,0
1507860452.449,851.963,830.578,845.109,823.244,0.000,0.000,0
1507860452.451,851.620,826.877,844.286,818.378,0.000,0.000,0
1507860452.453,849.153,823.655,842.984,829.139,0.000,0.000,0
1507860452.455,842.641,824.546,843.532,834.485,0.000,0.000,0
1507860452.457,838.049,824.615,845.040,826.808,0.000,0.000,0
1507860452.459,832.360,821.462,848.604,816.253,0.000,0.000,0
1507860452.461,834.005,819.817,849.564,818.309,0.000,0.000,0
1507860452.463,834.348,819.406,847.645,817.418,0.000,0.000,0
1507860452.465,841.133,821.051,848.810,821.119,0.000,0.000,0
1507860452.467,841.065,822.627,851.277,827.425,0.000,0.000,0
1507860452.469,847.233,823.244,853.196,840.585,0.000,0.000,0
1507860452.471,851.963,823.587,848.467,837.364,0.000,0.000,0
1507860452.473,849.975,819.886,846.068,829.344,0.000,0.000,0
1507860452.475,844.697,821.325,848.810,830.578,0.000,0.000,0
1507860452.477,844.355,824.341,846.959,828.864,0.000,0.000,0
1507860452.479,840.722,827.905,848.673,825.300,0.000,0.000,0
1507860452.481,839.420,828.522,847.987,827.768,0.000,0.000,0
1507860452.483,839.968,830.030,848.536,833.457,0.000,0.000,0
1507860452.485,849.701,833.594,847.987,843.532,0.000,0.000,0
1507860452.487,844.423,830.304,848.673,840.448,0.000,0.000,0
1507860452.489,839.968,824.478,846.000,834.074,0.000,0.000,0
1507860452.491,840.791,826.466,848.330,832.840,0.000,0.000,0
1507860452.493,847.508,826.466,846.548,838.460,0.000,0.000,0
1507860452.495,844.012,824.204,844.766,840.448,0.000,0.000,0
1507860452.497,843.258,824.067,842.915,829.276,0.000,0.000,0
1507860452.499,838.392,823.176,847.782,830.167,0.000,0.000,0
1507860452.501,843.258,824.958,851.757,835.856,0.000,0.000,0
1507860452.503,847.096,827.425,850.112,842.984,0.000,0.000,0
1507860452.505,842.847,824.821,847.508,837.843,0.000,0.000,0
1507860452.507,839.283,824.204,847.233,832.566,0.000,0.000,0
1507860452.509,845.314,824.546,847.850,817.966,0.000,0.000,0
1507860452.511,853.676,822.216,845.931,818.789,0.000,0.000,0
1507860452.513,852.785,823.861,845.726,826.740,0.000,0.000,0
1507860452.515,845.383,826.054,844.218,832.497,0.000,0.000,0
1507860452.517,837.569,827.768,844.081,823.450,0.000,0.000,0
1507860452.519,836.541,827.905,843.943,828.179,0.000,0.000,0
1507860452.521,835.719,824.752,843.327,827.905,0.000,0.000,0
1507860452.523,836.541,823.518,841.750,821.736,0.000,0.000,0
1507860452.525,840.791,828.248,843.669,816.321,0.000,0.000,0
1507860452.527,848.604,829.824,844.766,828.179,0.000,0.000,0
1507860452.529,854.362,827.357,846.891,836.473,0.000,0.000,0
1507860452.531,855.732,823.518,844.834,837.158,0.000,0.000,0
1507860452.533,855.047,818.720,844.286,834.759,0.000,0.000,0
1507860452.535,843.601,815.773,845.177,834.485,0.000,0.000,0
1507860452.537,840.585,820.434,844.423,825.369,0.000,0.000,0
1507860452.539,835.856,828.659,844.766,813.785,0.000,0.000,0
1507860452.541,837.775,827.494,847.576,816.664,0.000,0.000,0
1507860452.543,838.940,829.961,846.822,826.260,0.000,0.000,0
1507860452.545,837.021,830.235,848.262,827.357,0.000,0.000,0
1507860452.547,834.828,828.727,846.891,824.135,0.000,0.000,0
1507860452.549,835.102,826.603,847.096,828.316,0.000,0.000,0
1507860452.551,839.488,826.123,847.850,834.828,0.000,0.000,0
1507860452.553,838.803,821.531,848.056,839.351,0.000,0.000,0
1507860452.555,840.859,821.531,848.536,847.439,0.000,0.000,0
1507860452.557,835.444,825.232,846.411,833.799,0.000,0.000,0
1507860452.559,831.743,823.998,844.560,823.861,0.000,0.000,0
1507860452.561,832.840,825.163,844.423,823.244,0.000,0.000,0
1507860452.563,835.102,825.026,846.068,823.930,0.000,0.000,0
1507860452.565,841.613,824.135,847.028,825.163,0.000,0.000,0
1507860452.567,847.713,820.434,847.576,831.469,0.000,0.000,0
1507860452.569,846.274,819.132,845.726,831.880,0.000,0.000,0
1507860452.571,850.935,819.337,847.233,836.815,0.000,0.000,0
1507860452.573,846.959,826.466,844.218,822.216,0.000,0.000,0
1507860452.575,850.729,830.235,846.000,824.272,0.000,0.000,0
1507860452.577,846.959,829.139,844.766,822.696,0.000,0.000,0
1507860452.579,843.395,825.300,843.943,827.905,0.000,0.000,0
1507860452.581,840.105,822.216,846.959,829.481,0.000,0.000,0
1507860452.583,835.993,822.216,849.495,829.755,0.000,0.000,0
1507860452.585,840.379,821.668,845.314,831.606,0.000,0.000,0
1507860452.587,850.866,821.668,846.411,846.205,0.000,0.000,0
1507860452.589,846.685,823.998,842.573,840.996,0.000,0.000,0
1507860452.591,846.000,822.285,842.230,832.840,0.000,0.000,0
1507860452.593,844.218,819.954,842.504,823.930,0.000,0.000,0
1507860452.595,842.230,819.817,843.121,825.643,0.000,0.000,0
1507860452.597,840.448,821.119,843.532,825.917,0.000,0.000,0
1507860452.599,840.585,822.422,847.096,821.393,0.000,0.000,0
1507860452.601,843.806,819.886,847.508,831.332,0.000,0.000,0
1507860452.603,838.871,820.160,844.218,834.211,0.000,0.000,0
1507860452.605,838.392,819.611,843.943,827.768,0.000,0.000,0
1507860452.607,837.569,823.998,844.012,823.244,0.000,0.000,0
1507860452.609,846.822,827.836,846.685,832.566,0.000,0.000,0
1507860452.611,848.673,830.372,844.355,837.226,0.000,0.000,0
1507860452.613,850.660,825.300,844.766,841.750,0.000,0.000,0
1507860452.615,849.975,820.091,847.850,839.831,0.000,0.000,0
1507860452.617,844.834,816.664,846.137,829.550,0.000,0.000,0
1507860452.619,840.448,817.487,844.286,824.341,0.000,0.000,0
1507860452.621,835.102,820.091,844.286,831.332,0.000,0.000,0
1507860452.623,833.183,825.643,841.613,829.276,0.000,0.000,0
1507860452.625,832.771,826.191,841.819,820.914,0.000,0.000,0
1507860452.627,840.174,828.522,845.863,830.852,0.000,0.000,0
1507860452.629,839.831,825.780,845.314,837.158,0.000,0.000,0
1507860452.631,846.479,822.627,845.588,838.323,0.000,0.000,0
1507860452.633,846.479,819.063,845.040,837.021,0.000,0.000,0
1507860452.635,843.943,813.100,843.532,842.436,0.000,0.000,0
1507860452.637,836.198,813.785,843.327,824.341,0.000,0.000,0
1507860452.639,824.889,816.253,842.710,817.555,0.000,0.000,0
1507860452.641,822.833,821.736,846.068,816.596,0.000,0.000,0
1507860452.643,834.965,821.736,845.588,830.852,0.000,0.000,0
1507860452.645,842.093,825.506,844.423,835.719,0.000,0.000,0
1507860452.647,844.355,826.123,844.081,838.255,0.000,0.000,0
1507860452.649,843.395,826.808,848.741,843.943,0.000,0.000,0
1507860452.651,844.903,826.534,847.233,843.532,0.000,0.000,0
1507860452.653,846.274,823.107,843.190,849.632,0.000,0.000,0
1507860452.655,840.448,821.393,844.492,844.218,0.000,0.000,0
1507860452.657,838.734,821.051,844.560,837.980,0.000,0.000,1
1507860452.659,836.541,820.571,846.959,835.307,0.000,0.000,0
1507860452.661,832.840,816.321,847.439,830.372,0.000,0.000,0
1507860452.663,834.348,821.119,846.959,834.142,0.000,0.000,0
1507860452.665,841.750,824.067,847.233,839.283,0.000,0.000,0
1507860452.667,848.741,824.615,848.878,846.754,0.000,0.000,0
1507860452.669,854.979,821.119,847.576,856.281,0.000,0.000,0
1507860452.671,851.689,817.898,847.165,842.915,0.000,0.000,0
1507860452.673,845.109,820.503,846.617,830.030,0.000,0.000,0
1507860452.675,845.040,825.095,848.399,828.453,0.000,0.000,0
1507860452.677,847.370,825.095,847.302,834.279,0.000,0.000,0
1507860452.679,841.339,824.889,848.399,830.098,0.000,0.000,0
1507860452.681,839.625,819.406,850.455,829.139,0.000,0.000,0
1507860452.683,841.819,817.213,849.564,838.117,0.000,0.000,0
1507860452.685,846.685,816.801,848.467,840.585,0.000,0.000,0
1507860452.687,853.539,816.870,847.508,834.005,0.000,0.000,0
1507860452.689,843.121,820.228,848.056,826.603,0.000,0.000,0
1507860452.691,850.660,820.640,850.866,839.146,0.000,0.000,0
1507860452.693,856.898,822.490,850.729,840.448,0.000,0.000,0
1507860452.695,849.769,823.930,848.467,839.214,0.000,0.000,0
1507860452.697,843.875,823.176,847.165,833.045,0.000,0.000,0
1507860452.699,833.525,823.176,846.685,827.562,0.000,0.000,0
1507860452.701,827.836,822.079,847.439,824.615,0.000,0.000,0
1507860452.703,832.292,824.409,847.302,828.453,0.000,0.000,0
1507860452.705,847.508,828.385,847.165,841.956,0.000,0.000,0
1507860452.707,847.782,833.114,847.508,843.052,0.000,0.000,0
1507860452.709,849.016,831.058,845.177,845.177,0.000,0.000,0
1507860452.711,848.056,829.618,843.738,842.367,0.000,0.000,0
1507860452.713,851.689,826.603,845.588,836.678,0.000,0.000,0
1507860452.715,847.850,823.176,845.383,835.239,0.000,0.000,0
1507860452.717,839.146,823.792,843.395,825.163,0.000,0.000,0
1507860452.719,831.880,822.970,843.464,825.300,0.000,0.000,0
1507860452.721,827.082,822.559,845.794,823.039,0.000,0.000,0
1507860452.723,839.146,822.627,845.931,837.638,0.000,0.000,0
1507860452.725,837.569,816.870,846.822,830.372,0.000,0.000,0
1507860452.727,846.548,814.471,847.713,829.618,0.000,0.000,0
1507860452.729,847.370,817.075,847.096,829.070,0.000,0.000,0
1507860452.731,841.750,820.571,847.165,830.921,0.000,0.000,0
1507860452.733,847.233,822.901,847.370,838.186,0.000,0.000,0
1507860452.735,843.258,827.082,845.314,841.202,0.000,0.000,0
1507860452.737,841.613,825.986,845.314,841.202,0.000,0.000,0
1507860452.739,832.017,824.958,846.342,833.457,0.000,0.000,0
1507860452.741,814.197,823.998,843.121,821.325,0.000,0.000,0
1507860452.743,815.842,822.490,844.972,818.309,0.000,0.000,0
1507860452.745,831.332,824.958,848.330,820.982,0.000,0.000,0
1507860452.747,841.750,824.546,848.399,832.703,0.000,0.000,0
1507860452.749,840.722,824.067,849.838,839.351,0.000,0.000,0
1507860452.751,844.629,823.792,848.947,846.342,0.000,0.000,0
1507860452.753,843.875,826.740,846.617,844.766,0.000,0.000,0
1507860452.755,839.488,824.752,844.492,843.464,0.000,0.000,0
1507860452.757,831.263,826.671,847.576,823.930,0.000,0.000,0
1507860452.759,834.828,826.945,847.439,820.297,0.000,0.000,0
1507860452.761,834.348,825.506,847.850,814.951,0.000,0.000,0
1507860452.763,837.638,825.163,848.810,827.014,0.000,0.000,0
1507860452.765,840.311,826.260,848.536,832.429,0.000,0.000,0
1507860452.767,844.697,822.696,850.798,834.005,0.000,0.000,0
1507860452.769,852.305,823.930,851.209,840.105,0.000,0.000,0
1507860452.771,853.196,818.926,849.290,845.246,0.000,0.000,0
1507860452.773,851.894,816.459,847.645,841.065,0.000,0.000,0
1507860452.775,844.286,819.680,849.701,835.856,0.000,0.000,0
1507860452.777,842.093,826.191,847.576,831.606,0.000,0.000,0
1507860452.779,838.049,827.973,847.370,827.836,0.000,0.000,0
1507860452.781,834.759,822.970,849.221,831.880,0.000,0.000,0
1507860452.783,838.734,822.216,850.523,837.226,0.000,0.000,0
1507860452.785,843.738,826.808,852.031,849.084,0.000,0.000,0
1507860452.787,838.255,827.014,850.386,844.423,0.000,0.000,0
1507860452.789,835.581,828.590,848.878,835.444,0.000,0.000,0
1507860452.791,838.871,833.525,849.290,832.360,0.000,0.000,0
1507860452.793,847.850,830.784,847.713,836.815,0.000,0.000,0
1507860452.795,842.504,828.796,847.302,829.893,0.000,0.000,0
1507860452.797,833.525,829.824,847.987,823.176,0.000,0.000,0
1507860452.799,824.135,829.207,847.370,823.655,0.000,0.000,0
1507860452.801,820.023,826.808,846.822,820.845,0.000,0.000,0
1507860452.803,829.207,821.942,845.588,833.457,0.000,0.000,0
1507860452.805,832.223,821.531,843.806,829.687,0.000,0.000,0
1507860452.807,830.852,822.353,842.778,824.683,0.000,0.000,0
1507860452.809,839.968,822.147,846.959,828.385,0.000,0.000,0
1507860452.811,848.673,821.942,846.685,829.344,0.000,0.000,0
1507860452.813,848.536,816.870,845.177,830.304,0.000,0.000,0
1507860452.815,842.298,814.951,843.738,826.466,0.000,0.000,0
1507860452.817,840.379,815.773,844.355,823.655,0.000,0.000,0
1507860452.819,839.557,815.362,843.052,833.731,0.000,0.000,0
1507860452.821,831.812,818.446,842.093,830.578,0.000,0.000,0
1507860452.823,824.821,820.777,844.560,816.253,0.000,0.000,0
1507860452.825,832.429,825.369,846.411,822.901,0.000,0.000,0
1507860452.827,839.009,828.659,845.794,844.286,0.000,0.000,0
1507860452.829,845.931,831.332,844.972,841.407,0.000,0.000,0
1507860452.831,851.483,832.429,844.492,833.457,0.000,0.000,0
1507860452.833,850.112,832.360,842.436,828.727,0.000,0.000,0
1507860452.835,851.963,829.002,842.436,832.017,0.000,0.000,0
1507860452.837,847.096,825.917,844.697,821.188,0.000,0.000,0
1507860452.839,837.638,823.313,843.464,812.003,0.000,0.000,0
1507860452.841,832.840,824.135,843.669,815.430,0.000,0.000,0
1507860452.843,835.239,826.123,846.411,827.768,0.000,0.000,0
1507860452.845,838.392,825.232,847.645,833.320,0.000,0.000,0
1507860452.847,843.258,819.680,847.233,837.295,0.000,0.000,0
1507860452.849,846.685,815.293,847.370,838.392,0.000,0.000,0
1507860452.851,848.741,816.047,846.754,839.625,0.000,0.000,0
1507860452.853,855.527,821.119,845.726,846.274,0.000,0.000,0
1507860452.855,850.660,823.450,843.258,836.747,0.000,0.000,0
1507860452.857,837.364,822.490,844.012,821.599,0.000,0.000,0
1507860452.859,831.880,818.789,847.919,826.945,0.000,0.000,0
1507860452.861,831.538,814.265,847.302,831.195,0.000,0.000,0
1507860452.863,836.678,818.104,849.632,840.037,0.000,0.000,0
1507860452.865,836.061,821.325,846.274,840.791,0.000,0.000,0
1507860452.867,837.912,820.571,845.383,847.508,0.000,0.000,0
1507860452.869,839.900,822.010,844.355,849.906,0.000,0.000,0
1507860452.871,851.003,824.478,845.588,851.620,0.000,0.000,0
1507860452.873,858.954,826.054,847.645,849.632,0.000,0.000,0
1507860452.875,854.499,828.248,846.342,840.859,0.000,0.000,0
1507860452.877,843.875,828.933,843.052,826.945,0.000,0.000,0
1507860452.879,830.372,831.538,844.423,814.814,0.000,0.000,0
1507860452.881,826.808,832.429,845.383,820.777,0.000,0.000,0
1507860452.883,834.896,830.852,845.383,827.288,0.000,0.000,0
1507860452.885,840.379,831.058,845.383,828.659,0.000,0.000,0
1507860452.887,840.996,825.849,844.834,839.351,0.000,0.000,0
1507860452.889,840.242,825.780,846.754,838.803,0.000,0.000,0
1507860452.891,841.956,827.562,848.810,835.170,0.000,0.000,0
1507860452.893,849.358,831.195,851.072,845.177,0.000,0.000,0
1507860452.895,847.165,827.082,851.757,849.975,0.000,0.000,0
1507860452.897,841.270,820.640,849.838,834.142,0.000,0.000,0
1507860452.899,839.077,818.104,850.112,823.518,0.000,0.000,0
1507860452.901,842.915,816.801,850.592,837.638,0.000,0.000,0
1507860452.903,839.762,817.007,849.906,833.799,0.000,0.000,0
1507860452.905,841.476,820.228,850.181,829.481,0.000,0.000,0
1507860452.907,836.267,824.272,850.798,824.204,0.000,0.000,0
1507860452.909,845.451,826.534,851.003,836.952,0.000,0.000,0
1507860452.911,848.399,827.357,849.838,840.379,0.000,0.000,0
1507860452.913,851.689,828.111,848.124,837.226,0.000,0.000,0
1507860452.915,847.096,828.111,847.713,835.376,0.000,0.000,0
1507860452.917,845.040,830.030,848.262,831.400,0.000,0.000,0
1507860452.919,849.221,825.095,845.451,836.267,0.000,0.000,0
1507860452.921,839.968,820.571,846.685,831.195,0.000,0.000,0
1507860452.923,832.840,820.982,846.000,818.995,0.000,0.000,0
1507860452.925,836.130,827.288,844.012,815.910,0.000,0.000,0
1507860452.927,835.856,827.082,844.286,819.886,0.000,0.000,0
1507860452.929,841.613,827.151,844.149,821.668,0.000,0.000,0
1507860452.931,845.177,827.219,845.177,824.478,0.000,0.000,0
1507860452.933,844.766,827.288,845.451,825.369,0.000,0.000,0
1507860452.935,843.532,829.207,843.601,830.304,0.000,0.000,0
1507860452.937,834.485,833.594,844.081,821.531,0.000,0.000,0
1507860452.939,825.163,832.908,841.065,813.991,0.000,0.000,0
1507860452.941,825.986,833.388,845.794,813.169,0.000,0.000,0
1507860452.943,836.061,830.921,843.601,825.506,0.000,0.000,0
1507860452.945,833.320,827.562,845.109,825.300,0.000,0.000,0
1507860452.947,832.908,823.176,846.342,828.042,0.000,0.000,0
1507860452.949,842.436,820.297,847.987,827.699,0.000,0.000,0
1507860452.951,856.007,819.543,848.741,836.061,0.000,0.000,0
1507860452.953,846.479,821.325,847.987,832.017,0.000,0.000,0
1507860452.955,837.775,821.325,845.726,824.409,0.000,0.000,0
1507860452.957,830.989,824.615,846.205,812.346,0.000,0.000,0
1507860452.959,833.388,826.397,846.959,819.406,0.000,0.000,0
1507860452.961,831.126,826.877,847.439,825.780,0.000,0.000,0
1507860452.963,831.743,827.562,848.741,836.130,0.000,0.000,0
1507860452.965,835.924,827.288,847.165,835.650,0.000,0.000,0
1507860452.967,839.900,827.288,847.850,827.905,0.000,0.000,0
1507860452.969,851.072,822.970,849.016,836.815,0.000,0.000,0
1507860452.971,843.327,814.882,845.931,836.952,0.000,0.000,0
1507860452.973,842.093,813.374,844.286,835.239,0.000,0.000,0
1507860452.975,844.903,817.761,846.274,837.226,0.000,0.000,0
1507860452.977,842.573,823.861,845.177,834.416,0.000,0.000,0
1507860452.979,835.376,825.712,843.669,830.989,0.000,0.000,0
1507860452.981,832.497,824.341,844.629,826.054,0.000,0.000,0
1507860452.983,839.420,824.067,848.124,829.207,0.000,0.000,0
1507860452.985,844.834,823.930,848.878,831.538,0.000,0.000,0
1507860452.987,846.342,822.422,848.467,841.407,0.000,0.000,0
1507860452.989,849.838,819.269,848.399,844.355,0.000,0.000,0
1507860452.991,851.003,815.362,848.604,847.302,0.000,0.000,0
1507860452.993,851.552,820.091,848.399,846.548,0.000,0.000,0
1507860452.995,845.383,824.615,847.233,844.766,0.000,0.000,0
1507860452.997,841.613,825.163,847.028,840.585,0.000,0.000,0
1507860452.999,837.364,825.437,844.492,833.114,0.000,0.000,0
1507860453.001,835.719,826.740,847.028,832.771,0.000,0.000,0
1507860453.003,837.295,822.422,848.467,833.799,0.000,0.000,0
1507860453.005,839.831,824.341,846.411,835.513,0.000,0.000,0
1507860453.007,844.834,829.824,847.370,847.439,0.000,0.000,0
1507860453.009,851.277,830.167,848.467,852.100,0.000,0.000,0
1507860453.011,858.954,827.425,849.084,852.374,0.000,0.000,0
1507860453.013,857.515,824.821,847.370,843.943,0.000,0.000,0
1507860453.015,849.906,819.611,846.411,835.650,0.000,0.000,0
1507860453.017,854.156,817.692,847.987,838.940,0.000,0.000,0
1507860453.019,850.044,814.951,847.850,832.703,0.000,0.000,0
1507860453.021,840.379,816.938,849.838,825.849,0.000,0.000,0
1507860453.023,836.610,818.995,849.769,823.381,0.000,0.000,0
1507860453.025,841.819,821.942,851.346,827.905,0.000,0.000,0
1507860453.027,843.806,824.341,852.717,832.223,0.000,0.000,0
1507860453.029,845.588,825.369,852.580,836.130,0.000,0.000,0
1507860453.031,847.165,830.098,850.386,837.021,0.000,0.000,0
1507860453.033,844.081,831.126,850.455,833.594,0.000,0.000,0
1507860453.035,847.508,831.058,848.810,823.381,0.000,0.000,0
1507860453.037,853.608,830.372,846.754,825.575,0.000,0.000,0
1507860453.039,841.270,832.086,847.302,819.200,0.000,0.000,0
1507860453.041,826.877,830.372,848.330,814.334,0.000,0.000,0
1507860453.043,832.634,828.316,850.935,819.543,0.000,0.000,0
1507860453.045,840.928,824.546,848.399,821.188,0.000,0.000,0
1507860453.047,847.987,823.244,851.003,824.135,0.000,0.000,0
1507860453.049,851.689,822.696,851.894,829.755,0.000,0.000,0
1507860453.051,852.305,820.845,849.016,835.102,0.000,0.000,0
1507860453.053,851.552,822.079,850.729,826.260,0.000,0.000,0
1507860453.055,842.984,823.381,849.632,812.689,0.000,0.000,0
1507860453.057,843.052,826.740,850.592,809.262,0.000,0.000,0
1507860453.059,845.588,828.933,850.181,813.100,0.000,0.000,0
1507860453.061,839.900,827.699,851.277,814.128,0.000,0.000,0
1507860453.063,836.815,818.378,850.181,816.733,0.000,0.000,0
1507860453.065,843.052,810.221,849.358,817.144,0.000,0.000,0
1507860453.067,848.878,811.729,850.249,821.051,0.000,0.000,0
1507860453.069,856.692,818.720,849.564,838.117,0.000,0.000,0
1507860453.071,851.483,823.313,849.769,830.098,0.000,0.000,0
1507860453.073,848.741,825.917,849.632,819.543,0.000,0.000,0
1507860453.075,844.355,826.945,851.072,820.023,0.000,0.000,0
1507860453.077,844.972,833.320,852.100,823.381,0.000,0.000,0
1507860453.079,841.613,836.130,852.374,821.393,0.000,0.000,0
1507860453.081,838.186,832.429,851.140,818.857,0.000,0.000,0
1507860453.083,840.105,835.650,850.729,820.297,0.000,0.000,0
1507860453.085,854.773,837.158,851.072,830.989,0.000,0.000,0
1507860453.087,850.660,832.634,852.854,829.687,0.000,0.000,0
1507860453.089,848.124,830.441,852.648,827.425,0.000,0.000,0
1507860453.091,849.290,834.211,850.798,825.712,0.000,0.000,0
1507860453.093,856.144,832.703,847.713,829.207,0.000,0.000,0
1507860453.095,856.898,830.441,848.399,829.961,0.000,0.000,0
1507860453.097,853.128,828.248,848.947,823.792,0.000,0.000,0
1507860453.099,843.327,826.328,848.399,819.886,0.000,0.000,0
1507860453.101,842.093,825.712,848.124,827.357,0.000,0.000,0
1507860453.103,835.719,826.123,847.713,820.023,0.000,0.000,0
1507860453.105,837.158,825.643,847.782,822.353,0.000,0.000,0
1507860453.107,836.198,820.914,850.181,821.119,0.000,0.000,0
1507860453.109,845.383,815.293,847.645,829.618,0.000,0.000,0
1507860453.111,851.483,816.664,846.137,832.566,0.000,0.000,0
1507860453.113,852.100,819.817,844.697,828.522,0.000,0.000,0
1507860453.115,845.794,822.010,846.685,824.821,0.000,0.000,0
1507860453.117,844.081,821.393,846.068,820.914,0.000,0.000,0
1507860453.119,844.766,817.281,847.165,826.054,0.000,0.000,0
1507860453.121,837.843,816.527,847.508,821.051,0.000,0.000,0
1507860453.123,831.332,822.696,847.508,817.075,0.000,0.000,0
1507860453.125,839.077,828.796,848.124,816.938,0.000,0.000,0
1507860453.127,848.878,829.550,848.056,814.677,0.000,0.000,0
1507860453.129,855.527,830.578,846.685,805.286,0.000,0.000,0
1507860453.131,855.390,827.631,845.726,803.847,0.000,0.000,0
1507860453.133,844.081,824.272,844.081,805.766,0.000,0.000,0
1507860453.135,838.323,822.627,847.096,810.564,0.000,0.000,0
1507860453.137,838.117,823.176,846.548,818.104,0.000,0.000,0
1507860453.139,839.146,828.590,845.109,814.882,0.000,0.000,0
1507860453.141,830.715,833.936,843.258,809.673,0.000,0.000,0
1507860453.143,835.993,833.936,845.040,810.084,0.000,0.000,0
1507860453.145,840.722,829.687,844.081,808.234,0.000,0.000,0
1507860453.147,840.654,826.260,845.520,815.019,0.000,0.000,0
1507860453.149,844.286,824.135,844.081,819.680,0.000,0.000,0
1507860453.151,854.156,819.132,845.451,828.248,0.000,0.000,0
1507860453.153,847.919,815.225,845.863,822.285,0.000,0.000,0
1507860453.155,839.968,808.508,847.302,817.144,0.000,0.000,0
1507860453.157,833.936,808.028,850.318,808.234,0.000,0.000,0
1507860453.159,834.279,817.144,849.769,807.685,0.000,0.000,0
1507860453.161,834.142,823.039,848.947,811.249,0.000,0.000,0
1507860453.163,835.719,826.534,848.467,814.402,0.000,0.000,0
1507860453.165,840.722,833.731,849.016,816.664,0.000,0.000,0
1507860453.167,845.794,834.896,850.935,823.313,0.000,0.000,0
1507860453.169,850.592,834.485,852.580,831.606,0.000,0.000,0
1507860453.171,848.741,832.771,849.495,838.117,0.000,0.000,0
1507860453.173,851.277,832.017,849.632,840.174,0.000,0.000,0
1507860453.175,843.464,828.590,850.866,830.578,0.000,0.000,0
1507860453.177,839.557,827.768,850.044,822.010,0.000,0.000,0
1507860453.179,833.799,825.780,848.330,820.091,0.000,0.000,0
1507860453.181,832.566,822.833,849.084,824.889,0.000,0.000,0
1507860453.183,834.622,826.123,849.495,829.207,0.000,0.000,0
1507860453.185,847.782,827.699,852.374,839.420,0.000,0.000,0
1507860453.187,843.943,829.139,854.088,839.077,0.000,0.000,0
1507860453.189,837.775,828.111,853.196,834.074,0.000,0.000,0
1507860453.191,843.121,826.260,854.841,830.441,0.000,0.000,0
1507860453.193,854.293,823.930,853.882,838.597,0.000,0.000,0
1507860453.195,852.100,826.466,850.455,841.545,0.000,0.000,0
1507860453.197,846.137,825.643,849.221,831.812,0.000,0.000,0
1507860453.199,834.828,822.970,850.523,828.179,0.000,0.000,0
1507860453.201,836.610,822.422,850.044,837.089,0.000,0.000,0
1507860453.203,839.283,825.095,852.305,832.908,0.000,0.000,0
1507860453.205,837.569,828.042,849.975,820.365,0.000,0.000,0
1507860453.207,839.351,833.662,849.906,824.889,0.000,0.000,0
1507860453.209,842.024,831.538,848.330,833.936,0.000,0.000,0
1507860453.211,846.754,830.030,849.838,835.376,0.000,0.000,0
1507860453.213,852.854,827.151,850.112,839.351,0.000,0.000,0
1507860453.215,849.358,824.752,852.100,838.803,0.000,0.000,0
1507860453.217,846.411,829.344,849.495,830.235,0.000,0.000,0
1507860453.219,844.286,831.538,846.754,832.908,0.000,0.000,0
1507860453.221,838.666,832.771,846.205,822.833,0.000,0.000,0
1507860453.223,836.198,833.799,847.028,819.337,0.000,0.000,0
1507860453.225,843.052,826.534,851.826,825.506,0.000,0.000,0
1507860453.227,846.959,817.075,854.841,831.195,0.000,0.000,0
1507860453.229,846.891,814.471,853.471,836.610,0.000,0.000,0
1507860453.231,849.358,811.935,848.673,836.884,0.000,0.000,0
1507860453.233,855.116,820.708,848.330,839.146,0.000,0.000,0
1507860453.235,847.782,825.849,846.342,830.921,0.000,0.000,0
1507860453.237,841.202,831.195,846.000,824.341,0.000,0.000,0
1507860453.239,827.768,831.606,846.685,815.156,0.000,0.000,0
1507860453.241,829.824,829.755,849.495,823.107,0.000,0.000,0
1507860453.243,832.360,824.409,847.850,824.546,0.000,0.000,0
1507860453.245,833.183,824.683,846.891,822.216,0.000,0.000,0
1507860453.247,830.852,825.575,847.850,821.942,0.000,0.000,0
1507860453.249,837.569,829.824,847.302,825.575,0.000,0.000,0
1507860453.251,840.448,828.659,845.040,822.764,0.000,0.000,0
1507860453.253,847.165,826.877,843.601,831.126,0.000,0.000,0
1507860453.255,835.993,822.559,844.903,821.668,0.000,0.000,0
1507860453.257,826.123,819.886,847.302,811.249,0.000,0.000,0
1507860453.259,824.752,821.325,847.508,806.452,0.000,0.000,0
1507860453.261,824.341,821.188,847.439,807.891,0.000,0.000,0
1507860453.263,822.764,819.132,847.302,810.838,0.000,0.000,0
1507860453.265,828.179,821.599,846.342,811.661,0.000,0.000,0
1507860453.267,838.460,820.845,846.959,822.353,0.000,0.000,0
1507860453.269,839.900,821.325,846.959,823.176,0.000,0.000,0
1507860453.271,844.560,823.244,845.931,820.982,0.000,0.000,0
1507860453.273,831.195,823.313,844.766,809.330,0.000,0.000,0
1507860453.275,833.662,820.571,845.657,814.814,0.000,0.000,0
1507860453.277,836.610,818.926,845.109,808.576,0.000,0.000,0
1507860453.279,838.117,819.200,846.685,806.109,0.000,0.000,0
1507860453.281,837.843,817.007,847.508,805.149,0.000,0.000,0
1507860453.283,838.940,814.197,844.355,806.931,0.000,0.000,0
1507860453.285,849.290,809.056,843.875,817.898,0.000,0.000,0
1507860453.287,847.439,808.645,843.875,812.894,0.000,0.000,0
1507860453.289,854.499,817.624,844.834,809.467,0.000,0.000,0
1507860453.291,860.873,825.506,847.850,810.221,0.000,0.000,2
1507860453.293,865.054,825.849,847.987,813.923,0.000,0.000,0
1507860453.295,861.079,826.740,848.673,813.580,0.000,0.000,0
1507860453.297,850.935,827.973,847.096,805.698,0.000,0.000,0
1507860453.299,837.912,826.260,846.205,802.134,0.000,0.000,0
1507860453.301,835.993,820.228,848.193,812.552,0.000,0.000,0
1507860453.303,831.606,818.035,847.919,808.988,0.000,0.000,0
1507860453.305,836.747,823.176,845.726,800.283,0.000,0.000,0
1507860453.307,835.102,824.204,844.903,784.039,0.000,0.000,0
1507860453.309,840.379,824.409,844.355,786.917,0.000,0.000,0
1507860453.311,842.161,824.409,843.943,792.127,0.000,0.000,0
1507860453.313,844.355,825.575,843.464,794.731,0.000,0.000,0
1507860453.315,841.750,826.191,844.081,794.526,0.000,0.000,0
1507860453.317,842.984,825.643,845.246,796.513,0.000,0.000,0
1507860453.319,829.550,826.123,843.532,786.712,0.000,0.000,0
1507860453.321,832.771,828.316,843.190,788.014,0.000,0.000,0
1507860453.323,830.167,830.852,845.383,783.216,0.000,0.000,0
1507860453.325,838.940,830.304,847.919,790.345,0.000,0.000,0
1507860453.327,840.722,826.123,847.302,792.743,0.000,0.000,0
1507860453.329,845.109,823.313,846.822,793.018,0.000,0.000,0
1507860453.331,848.467,824.752,843.464,793.155,0.000,0.000,0
1507860453.333,853.745,824.683,840.722,791.510,0.000,0.000,0
1507860453.335,856.966,822.353,840.859,797.678,0.000,0.000,0
1507860453.337,848.193,821.873,842.161,780.132,0.000,0.000,0
1507860453.339,836.130,823.587,843.327,771.564,0.000,0.000,0
1507860453.341,833.320,826.328,844.012,767.726,0.000,0.000,0
1507860453.343,836.404,823.655,844.629,771.427,0.000,0.000,0
1507860453.345,838.666,823.655,846.342,773.552,0.000,0.000,0
1507860453.347,843.532,822.353,845.931,772.798,0.000,0.000,0
1507860453.349,845.931,818.583,846.274,770.810,0.000,0.000,0
1507860453.351,857.789,819.886,845.383,774.443,0.000,0.000,0
1507860453.353,853.539,821.256,843.532,764.093,0.000,0.000,0
1507860453.355,847.165,819.543,842.436,762.380,0.000,0.000,0
1507860453.357,837.569,819.474,844.355,752.784,0.000,0.000,0
1507860453.359,837.364,814.402,844.012,758.747,0.000,0.000,0
1507860453.361,835.650,812.483,844.081,757.651,0.000,0.000,0
1507860453.363,837.980,817.281,846.754,753.470,0.000,0.000,0
1507860453.365,843.806,824.341,846.068,753.195,0.000,0.000,0
1507860453.367,844.972,825.506,845.588,757.788,0.000,0.000,0
1507860453.369,848.673,825.780,843.464,764.710,0.000,0.000,0
1507860453.371,849.290,829.618,844.423,757.308,0.000,0.000,0
1507860453.373,848.330,832.154,844.081,748.946,0.000,0.000,0
1507860453.375,846.411,834.074,846.000,746.341,0.000,0.000,0
1507860453.377,844.560,829.824,845.040,741.064,0.000,0.000,0
1507860453.379,840.791,827.494,842.984,738.870,0.000,0.000,0
1507860453.381,838.940,827.151,842.847,745.382,0.000,0.000,0
1507860453.383,840.311,825.437,843.943,750.934,0.000,0.000,0
1507860453.385,845.931,823.450,844.286,758.679,0.000,0.000,0
1507860453.387,849.290,825.849,844.081,756.074,0.000,0.000,0
1507860453.389,848.467,826.191,844.766,748.535,0.000,0.000,0
1507860453.391,857.309,824.204,846.137,744.559,0.000,0.000,0
1507860453.393,853.608,818.104,846.274,744.217,0.000,0.000,0
1507860453.395,845.931,815.636,847.096,747.918,0.000,0.000,0
1507860453.397,841.545,815.088,845.588,746.341,0.000,0.000,0
1507860453.399,839.968,822.490,845.657,742.092,0.000,0.000,0
1507860453.401,840.654,825.575,843.190,742.229,0.000,0.000,0
1507860453.403,832.566,821.188,843.052,735.375,0.000,0.000,0
1507860453.405,835.033,817.281,843.190,734.895,0.000,0.000,0
1507860453.407,835.102,818.515,844.218,735.512,0.000,0.000,0
1507860453.409,836.541,813.511,842.984,747.027,0.000,0.000,0
1507860453.411,837.226,814.677,842.436,752.441,0.000,0.000,0
1507860453.413,841.545,822.833,845.794,749.768,0.000,0.000,0
1507860453.415,841.613,825.917,846.617,745.519,0.000,0.000,0
1507860453.417,841.476,827.768,845.451,749.494,0.000,0.000,0
1507860453.419,833.251,830.441,843.875,747.232,0.000,0.000,0
1507860453.421,831.812,827.151,845.314,749.426,0.000,0.000,0
1507860453.423,826.191,827.357,845.314,740.310,0.000,0.000,0
1507860453.425,838.734,828.042,845.794,748.192,0.000,0.000,0
1507860453.427,839.762,829.618,845.794,755.594,0.000,0.000,0
1507860453.429,847.508,830.784,847.645,762.585,0.000,0.000,0
1507860453.431,848.810,829.207,846.000,763.614,0.000,0.000,0
1507860453.433,847.028,825.369,844.423,763.956,0.000,0.000,0
1507860453.435,846.205,825.095,845.040,774.923,0.000,0.000,0
1507860453.437,836.130,828.453,843.121,764.573,0.000,0.000,0
1507860453.439,831.195,830.098,842.093,758.404,0.000,0.000,0
1507860453.441,834.759,831.195,844.149,761.215,0.000,0.000,0
1507860453.443,838.323,831.469,846.342,766.835,0.000,0.000,0
1507860453.445,840.311,831.812,846.000,765.121,0.000,0.000,0
1507860453.447,836.747,829.687,845.383,765.601,0.000,0.000,0
1507860453.449,842.984,827.836,844.149,772.250,0.000,0.000,0
1507860453.451,849.975,825.437,843.875,786.986,0.000,0.000,0
1507860453.453,846.685,818.309,842.230,785.752,0.000,0.000,0
1507860453.455,846.754,814.745,842.230,780.063,0.000,0.000,0
1507860453.457,845.863,813.923,841.065,775.540,0.000,0.000,0
1507860453.459,836.130,818.515,842.710,767.178,0.000,0.000,0
1507860453.461,825.369,825.643,844.355,757.719,0.000,0.000,0
1507860453.463,830.989,831.469,846.959,762.654,0.000,0.000,0
1507860453.465,838.666,834.759,843.669,762.380,0.000,0.000,0
1507860453.467,846.274,834.896,842.984,773.758,0.000,0.000,0
1507860453.469,844.560,831.469,842.778,773.483,0.000,0.000,0
1507860453.471,848.467,828.316,843.395,775.128,0.000,0.000,0
1507860453.473,843.532,824.135,842.367,766.424,0.000,0.000,0
1507860453.475,842.298,819.817,843.052,768.480,0.000,0.000,0
1507860453.477,839.557,818.583,840.791,761.078,0.000,0.000,0
1507860453.479,834.005,817.555,841.819,757.925,0.000,0.000,0
1507860453.481,829.755,817.898,844.560,758.747,0.000,0.000,0
1507860453.483,831.743,820.708,844.697,762.380,0.000,0.000,0
1507860453.485,840.928,823.313,843.258,775.882,0.000,0.000,0
1507860453.487,837.638,825.506,842.504,775.266,0.000,0.000,0
1507860453.489,836.678,829.413,840.585,776.499,0.000,0.000,0
1507860453.491,839.762,830.578,844.560,775.882,0.000,0.000,0
1507860453.493,840.037,827.425,845.931,780.132,0.000,0.000,0
1507860453.495,838.803,826.397,844.903,779.789,0.000,0.000,0
1507860453.497,837.980,826.808,844.423,779.104,0.000,0.000,0
1507860453.499,834.828,826.191,844.903,779.789,0.000,0.000,0
1507860453.501,831.332,822.490,844.560,792.881,0.000,0.000,0
1507860453.503,828.179,821.462,841.956,786.712,0.000,0.000,0
1507860453.505,830.578,821.256,842.641,779.858,0.000,0.000,0
1507860453.507,834.828,820.708,846.000,783.011,0.000,0.000,0
1507860453.509,840.722,817.624,846.754,793.634,0.000,0.000,0
1507860453.511,845.040,817.007,847.645,796.787,0.000,0.000,0
1507860453.513,850.044,818.104,846.479,799.529,0.000,0.000,0
1507860453.515,848.330,815.636,846.342,800.009,0.000,0.000,0
1507860453.517,848.810,811.592,844.355,806.657,0.000,0.000,0
1507860453.519,840.928,815.979,842.436,797.062,0.000,0.000,0
1507860453.521,831.400,821.256,842.436,789.591,0.000,0.000,0
1507860453.523,832.908,825.780,844.286,792.538,0.000,0.000,0
1507860453.525,846.274,830.167,844.697,802.682,0.000,0.000,0
1507860453.527,845.040,833.457,845.040,804.807,0.000,0.000,0
1507860453.529,850.866,834.828,846.068,812.689,0.000,0.000,0
1507860453.531,857.583,833.320,846.822,813.443,0.000,0.000,0
1507860453.533,851.552,830.372,845.451,809.330,0.000,0.000,0
1507860453.535,843.738,823.792,847.096,820.160,0.000,0.000,0
1507860453.537,834.896,826.191,846.479,812.072,0.000,0.000,0
1507860453.539,830.372,829.893,843.052,803.025,0.000,0.000,0
1507860453.541,833.320,837.089,844.834,802.819,0.000,0.000,0
1507860453.543,836.747,834.553,846.137,811.935,0.000,0.000,0
1507860453.545,835.513,829.002,848.262,813.237,0.000,0.000,0
1507860453.547,836.198,823.655,849.016,812.620,0.000,0.000,0
1507860453.549,840.037,822.422,851.826,816.801,0.000,0.000,0
1507860453.551,846.137,821.256,848.604,826.260,0.000,0.000,0
1507860453.553,845.588,823.244,848.467,821.599,0.000,0.000,0
1507860453.555,834.622,822.422,849.906,812.141,0.000,0.000,0
1507860453.557,833.662,821.256,851.620,810.838,0.000,0.000,0
1507860453.559,834.416,817.966,851.003,815.499,0.000,0.000,0
1507860453.561,830.852,819.406,849.769,819.337,0.000,0.000,0
1507860453.563,830.235,823.724,849.221,817.350,0.000,0.000,0
1507860453.565,835.513,824.135,846.411,806.520,0.000,0.000,0
1507860453.567,840.859,820.708,848.399,814.677,0.000,0.000,0
1507860453.569,839.488,818.309,848.124,813.306,0.000,0.000,0
1507860453.571,849.290,815.430,846.479,816.733,0.000,0.000,0
1507860453.573,844.766,814.882,846.000,811.592,0.000,0.000,0
1507860453.575,840.996,820.708,846.891,816.459,0.000,0.000,0
1507860453.577,832.223,826.740,844.492,811.798,0.000,0.000,0
1507860453.579,825.917,826.397,845.314,813.717,0.000,0.000,0
1507860453.581,825.643,825.917,845.383,816.596,0.000,0.000,0
1507860453.583,830.715,827.562,844.218,817.555,0.000,0.000,0
1507860453.585,838.186,824.135,844.492,827.494,0.000,0.000,0
1507860453.587,837.021,825.849,843.532,826.328,0.000,0.000,0
1507860453.589,841.613,828.933,843.395,819.269,0.000,0.000,0
1507860453.591,844.492,831.058,845.726,815.979,0.000,0.000,0
1507860453.593,846.822,832.360,845.520,822.353,0.000,0.000,0
1507860453.595,843.738,835.581,844.766,824.409,0.000,0.000,0
1507860453.597,838.597,839.625,843.669,821.051,0.000,0.000,0
1507860453.599,834.965,836.815,845.246,819.954,0.000,0.000,0
1507860453.601,840.379,828.042,846.000,830.921,0.000,0.000,0
1507860453.603,841.270,822.422,843.943,830.989,0.000,0.000,0
1507860453.605,840.242,825.095,843.532,825.300,0.000,0.000,0
1507860453.607,835.993,827.973,844.834,826.945,0.000,0.000,0
1507860453.609,841.819,826.466,844.972,831.949,0.000,0.000,0
1507860453.611,844.081,822.079,844.355,834.828,0.000,0.000,0
1507860453.613,843.532,819.817,843.327,830.030,0.000,0.000,0
1507860453.615,844.629,822.422,842.847,827.973,0.000,0.000,0
1507860453.617,845.109,824.615,844.218,837.706,0.000,0.000,0
1507860453.619,836.952,828.796,844.423,832.840,0.000,0.000,0
1507860453.621,832.086,822.010,846.137,822.764,0.000,0.000,0
1507860453.623,833.114,821.256,848.399,822.079,0.000,0.000,0
1507860453.625,845.726,823.587,848.810,832.429,0.000,0.000,0
1507860453.627,844.903,825.780,846.754,832.292,0.000,0.000,0
1507860453.629,845.314,828.590,846.137,838.117,0.000,0.000,0
1507860453.631,851.072,826.671,846.274,846.685,0.000,0.000,0
1507860453.633,853.813,818.857,846.548,842.367,0.000,0.000,0
1507860453.635,854.773,818.789,844.766,846.205,0.000,0.000,0
1507860453.637,837.912,823.930,844.218,831.675,0.000,0.000,0
1507860453.639,825.163,824.204,841.819,827.288,0.000,0.000,0
1507860453.641,822.216,823.381,844.355,823.518,0.000,0.000,0
1507860453.643,825.369,824.889,844.286,828.385,0.000,0.000,0
1507860453.645,829.413,827.151,840.585,827.219,0.000,0.000,0
1507860453.647,830.852,828.796,838.734,831.812,0.000,0.000,0
1507860453.649,835.856,828.179,839.968,837.295,0.000,0.000,0
1507860453.651,849.221,827.082,843.875,848.878,0.000,0.000,0
1507860453.653,844.834,822.216,845.109,844.972,0.000,0.000,0
1507860453.655,836.952,819.337,845.657,833.457,0.000,0.000,0
1507860453.657,837.775,821.805,844.834,819.269,0.000,0.000,0
1507860453.659,839.968,822.216,846.411,825.780,0.000,0.000,0
1507860453.661,835.993,821.325,847.096,827.768,0.000,0.000,0
1507860453.663,834.965,820.914,844.766,823.724,0.000,0.000,0
1507860453.665,836.061,822.216,844.766,825.026,0.000,0.000,0
1507860453.667,837.158,820.091,844.903,834.005,0.000,0.000,0
1507860453.669,834.965,819.337,842.641,834.348,0.000,0.000,0
1507860453.671,849.495,825.026,844.012,840.174,0.000,0.000,0
1507860453.673,850.181,829.618,844.492,833.457,0.000,0.000,0
1507860453.675,851.894,827.562,843.601,836.061,0.000,0.000,0
1507860453.677,843.669,823.655,842.093,834.759,0.000,0.000,0
1507860453.679,835.376,820.708,843.532,835.033,0.000,0.000,0
1507860453.681,827.836,818.789,844.218,833.662,0.000,0.000,0
1507860453.683,830.304,816.047,844.012,830.715,0.000,0.000,0
1507860453.685,844.492,818.926,845.314,839.214,0.000,0.000,0
1507860453.687,845.177,820.982,846.205,839.351,0.000,0.000,0
1507860453.689,846.685,821.325,844.697,837.158,0.000,0.000,0
1507860453.691,842.641,818.309,845.657,833.388,0.000,0.000,0
1507860453.693,843.121,816.459,847.576,837.980,0.000,0.000,0
1507860453.695,839.625,815.910,847.645,846.479,0.000,0.000,0
1507860453.697,838.323,817.624,846.205,843.943,0.000,0.000,0
1507860453.699,837.021,819.954,846.205,834.828,0.000,0.000,0
1507860453.701,837.158,822.285,845.520,839.831,0.000,0.000,0
1507860453.703,832.223,827.905,841.887,835.444,0.000,0.000,0
1507860453.705,837.364,832.771,843.395,837.158,0.000,0.000,0
1507860453.707,839.488,835.307,845.520,838.460,0.000,0.000,0
1507860453.709,845.177,836.473,846.822,846.137,0.000,0.000,0
1507860453.711,849.701,836.404,846.754,847.508,0.000,0.000,0
1507860453.713,853.128,831.949,845.657,846.137,0.000,0.000,0
1507860453.715,855.732,825.026,846.068,851.620,0.000,0.000,0
1507860453.717,854.293,818.995,842.915,847.645,0.000,0.000,0
1507860453.719,843.875,819.817,839.968,837.158,0.000,0.000,0
1507860453.721,834.759,824.821,841.476,826.671,0.000,0.000,0
1507860453.723,839.283,825.643,844.903,840.585,0.000,0.000,0
1507860453.725,843.190,827.836,845.314,839.557,0.000,0.000,0
1507860453.727,845.314,831.812,845.863,840.242,0.000,0.000,0
1507860453.729,849.632,831.126,846.000,847.165,0.000,0.000,0
1507860453.731,850.935,825.917,845.794,848.399,0.000,0.000,0
1507860453.733,844.012,823.176,843.532,839.968,0.000,0.000,0
1507860453.735,840.791,825.780,844.972,842.641,0.000,0.000,0
1507860453.737,841.133,825.986,844.081,848.124,0.000,0.000,0
1507860453.739,834.828,825.300,841.887,839.351,0.000,0.000,0
1507860453.741,832.292,821.119,841.407,842.298,0.000,0.000,0
1507860453.743,832.977,819.817,844.012,834.279,0.000,0.000,0
1507860453.745,840.859,819.132,846.000,838.255,0.000,0.000,0
1507860453.747,842.504,820.571,848.467,846.822,0.000,0.000,0
1507860453.749,846.548,825.095,848.193,849.564,0.000,0.000,0
1507860453.751,858.748,830.715,850.455,865.191,0.000,0.000,0
1507860453.753,850.455,826.877,847.782,864.917,0.000,0.000,0
1507860453.755,840.585,822.079,848.536,859.982,0.000,0.000,0
1507860453.757,837.569,823.381,848.193,847.850,0.000,0.000,0
1507860453.759,840.379,825.780,846.685,841.476,0.000,0.000,0
1507860453.761,838.734,827.562,846.685,835.170,0.000,0.000,0
1507860453.763,836.747,825.643,846.205,831.606,0.000,0.000,0
1507860453.765,836.267,822.010,846.274,831.880,0.000,0.000,0
1507860453.767,839.488,822.353,849.016,847.645,0.000,0.000,0
1507860453.769,843.052,822.696,849.632,853.608,0.000,0.000,0
1507860453.771,851.963,822.285,850.660,857.926,0.000,0.000,0
1507860453.773,849.769,820.777,850.386,846.959,0.000,0.000,0
1507860453.775,846.205,815.499,849.906,844.903,0.000,0.000,0
1507860453.777,838.597,820.434,848.741,842.230,0.000,0.000,0
1507860453.779,835.719,823.381,849.153,844.423,0.000,0.000,0
1507860453.781,836.610,824.821,848.193,849.016,0.000,0.000,0
1507860453.783,839.557,829.824,846.685,849.769,0.000,0.000,0
1507860453.785,841.407,828.796,847.919,853.813,0.000,0.000,0
1507860453.787,834.896,825.369,846.685,849.153,0.000,0.000,0
1507860453.789,837.706,821.462,844.972,846.959,0.000,0.000,0
1507860453.791,850.318,824.135,844.903,849.564,0.000,0.000,0
1507860453.793,849.358,827.973,844.355,849.290,0.000,0.000,0
1507860453.795,841.887,827.425,844.834,848.330,0.000,0.000,0
1507860453.797,835.856,827.905,845.451,846.411,0.000,0.000,0
1507860453.799,830.441,823.587,845.520,844.286,0.000,0.000,0
1507860453.801,827.631,817.007,844.903,852.580,0.000,0.000,0
1507860453.803,837.158,819.611,847.782,855.458,0.000,0.000,0
1507860453.805,841.407,825.917,847.028,848.056,0.000,0.000,0
1507860453.807,849.016,831.538,845.863,853.950,0.000,0.000,0
1507860453.809,850.660,832.429,844.766,857.103,0.000,0.000,0
1507860453.811,852.305,830.989,843.875,853.539,0.000,0.000,0
1507860453.813,845.246,829.002,843.669,852.717,0.000,0.000,0
1507860453.815,840.722,825.917,843.875,856.281,0.000,0.000,0
1507860453.817,836.884,825.095,844.012,848.604,0.000,0.000,0
1507860453.819,836.541,826.466,844.903,851.689,0.000,0.000,0
1507860453.821,827.768,825.986,844.081,845.451,0.000,0.000,0
1507860453.823,823.655,822.490,844.149,839.900,0.000,0.000,0
1507860453.825,832.360,824.341,847.233,847.028,0.000,0.000,0
1507860453.827,833.525,826.466,847.713,854.225,0.000,0.000,0
1507860453.829,836.198,828.590,846.274,856.075,0.000,0.000,0
1507860453.831,847.713,826.397,845.726,856.212,0.000,0.000,0
1507860453.833,851.689,822.696,843.464,861.833,0.000,0.000,0
1507860453.835,841.956,819.063,842.093,859.297,0.000,0.000,0
1507860453.837,830.372,816.184,842.230,846.754,0.000,0.000,0
1507860453.839,830.030,819.886,845.246,840.311,0.000,0.000,0
1507860453.841,833.388,820.503,847.302,850.181,0.000,0.000,0
1507860453.843,833.799,820.845,846.205,854.088,0.000,0.000,0
1507860453.845,841.202,826.466,847.233,857.172,0.000,0.000,0
1507860453.847,843.258,829.139,846.822,856.281,0.000,0.000,0
1507860453.849,844.972,827.836,845.726,858.474,0.000,0.000,0
1507860453.851,852.168,828.453,847.302,869.646,0.000,0.000,0
1507860453.853,846.754,828.385,844.355,861.627,0.000,0.000,0
1507860453.855,842.298,826.534,844.629,859.091,0.000,0.000,0
1507860453.857,838.734,825.849,844.972,854.430,0.000,0.000,0
1507860453.859,837.432,827.631,845.657,856.212,0.000,0.000,0
1507860453.861,835.102,828.522,846.342,861.353,0.000,0.000,0
1507860453.863,835.307,828.796,848.604,861.558,0.000,0.000,0
1507860453.865,841.750,829.139,848.741,857.857,0.000,0.000,0
1507860453.867,847.645,826.945,849.701,862.792,0.000,0.000,0
1507860453.869,847.302,825.095,848.878,863.203,0.000,0.000,0
1507860453.871,852.922,822.833,846.000,866.493,0.000,0.000,0
1507860453.873,848.947,826.260,846.342,862.449,0.000,0.000,0
1507860453.875,849.769,825.986,846.479,865.397,0.000,0.000,0
1507860453.877,843.943,820.914,845.520,855.664,0.000,0.000,0
1507860453.879,836.541,815.362,845.520,852.785,0.000,0.000,0
1507860453.881,836.884,817.281,845.657,854.088,0.000,0.000,0
1507860453.883,837.912,819.406,846.068,856.212,0.000,0.000,0
1507860453.885,845.246,820.845,846.754,868.892,0.000,0.000,0
1507860453.887,845.588,822.490,846.959,868.687,0.000,0.000,0
1507860453.889,848.330,823.450,846.754,868.344,0.000,0.000,0
1507860453.891,856.761,823.792,848.056,869.578,0.000,0.000,0
1507860453.893,855.321,815.910,846.685,866.630,0.000,0.000,0
1507860453.895,850.044,818.172,846.891,863.752,0.000,0.000,0
1507860453.897,847.302,826.123,848.741,859.365,0.000,0.000,0
1507860453.899,843.943,829.961,849.221,857.377,0.000,0.000,0
1507860453.901,837.980,825.300,847.233,870.674,0.000,0.000,0
1507860453.903,833.594,822.353,846.822,866.630,0.000,0.000,0
1507860453.905,830.235,825.026,847.439,849.906,0.000,0.000,0
1507860453.907,839.557,829.481,850.249,858.337,0.000,0.000,0
1507860453.909,847.233,829.893,849.906,868.618,0.000,0.000,0
1507860453.911,850.044,828.385,847.919,870.263,0.000,0.000,0
1507860453.913,852.443,829.207,849.084,874.033,0.000,0.000,0
1507860453.915,849.290,829.207,850.729,874.376,0.000,0.000,0
1507860453.917,851.209,830.921,851.757,873.485,0.000,0.000,0
1507860453.919,845.794,832.634,847.782,866.630,0.000,0.000,0
1507860453.921,839.831,829.481,847.850,863.066,0.000,0.000,0
1507860453.923,838.186,829.893,850.523,862.107,0.000,0.000,0
1507860453.925,847.233,826.945,851.620,870.332,0.000,0.000,0
1507860453.927,848.947,824.615,853.745,875.883,0.000,0.000,0
1507860453.929,850.455,825.369,853.539,879.036,0.000,0.000,0
1507860453.931,850.660,825.986,853.745,876.158,0.000,0.000,0
1507860453.933,850.386,823.381,850.935,879.448,0.000,0.000,0
1507860453.935,839.557,823.039,848.947,870.811,0.000,0.000,0
1507860453.937,835.513,826.123,847.028,855.321,0.000,0.000,0
1507860453.939,834.485,830.235,846.617,847.302,0.000,0.000,0
1507860453.941,837.706,826.466,847.165,853.402,0.000,0.000,0
1507860453.943,832.977,821.051,845.794,854.636,0.000,0.000,0
1507860453.945,833.045,818.241,845.246,853.196,0.000,0.000,0
1507860453.947,834.759,820.091,845.314,859.982,0.000,0.000,0
1507860453.949,839.009,821.119,845.931,862.929,0.000,0.000,0
1507860453.951,842.504,821.393,845.383,864.163,0.000,0.000,0
1507860453.953,845.520,818.446,846.411,872.045,0.000,0.000,0
1507860453.955,837.706,822.147,847.919,867.042,0.000,0.000,0
1507860453.957,831.743,824.409,847.850,860.393,0.000,0.000,0
1507860453.959,830.098,827.836,847.439,856.966,0.000,0.000,0
1507860453.961,830.167,831.743,845.383,853.471,0.000,0.000,0
1507860453.963,825.575,830.030,845.520,854.773,0.000,0.000,0
1507860453.965,831.606,822.696,843.806,857.857,0.000,0.000,0
1507860453.967,835.856,819.611,844.012,855.801,0.000,0.000,0
1507860453.969,840.311,821.805,844.492,859.091,0.000,0.000,0
1507860453.971,844.218,823.655,846.205,858.337,0.000,0.000,0
1507860453.973,850.249,824.204,847.919,867.179,0.000,0.000,0
1507860453.975,843.943,822.147,843.121,865.054,0.000,0.000,0
1507860453.977,832.223,819.886,842.984,851.346,0.000,0.000,0
1507860453.979,820.982,818.857,842.915,849.153,0.000,0.000,0
1507860453.981,825.575,824.341,843.464,849.290,0.000,0.000,0
1507860453.983,829.755,829.139,843.532,852.511,0.000,0.000,0
1507860453.985,838.940,829.276,843.875,864.917,0.000,0.000,0
1507860453.987,836.610,826.603,843.601,860.325,0.000,0.000,0
1507860453.989,839.009,827.082,844.972,858.543,0.000,0.000,0
1507860453.991,843.121,829.276,845.794,860.188,0.000,0.000,0
1507860453.993,843.464,829.893,845.588,858.817,0.000,0.000,0
1507860453.995,837.226,825.232,846.205,857.926,0.000,0.000,0
1507860453.997,830.921,821.668,845.794,856.829,0.000,0.000,0
1507860453.999,832.017,819.543,844.834,862.518,0.000,0.000,0
1507860454.001,827.699,820.571,843.395,856.418,0.000,0.000,0
1507860454.003,825.986,822.490,842.710,853.265,0.000,0.000,0
1507860454.005,833.594,827.494,845.520,849.975,0.000,0.000,0
1507860454.007,845.657,829.618,846.685,856.692,0.000,0.000,0
1507860454.009,847.165,827.836,846.342,859.365,0.000,0.000,0
1507860454.011,851.209,827.562,844.560,857.994,0.000,0.000,1
1507860454.013,851.277,822.079,843.052,857.309,0.000,0.000,0
1507860454.015,845.520,816.527,840.791,858.817,0.000,0.000,0
1507860454.017,843.601,818.035,843.121,859.639,0.000,0.000,0
1507860454.019,833.114,821.051,841.339,857.926,0.000,0.000,0
1507860454.021,822.490,827.082,839.968,853.402,0.000,0.000,0
1507860454.023,817.624,830.784,842.298,849.975,0.000,0.000,0
1507860454.025,829.755,831.812,842.024,851.346,0.000,0.000,0
1507860454.027,836.884,831.538,842.504,853.813,0.000,0.000,0
1507860454.029,841.202,829.961,841.956,859.160,0.000,0.000,0
1507860454.031,847.096,827.973,844.286,863.341,0.000,0.000,0
1507860454.033,848.193,823.998,847.919,869.578,0.000,0.000,0
1507860454.035,839.009,823.518,847.370,857.720,0.000,0.000,0
1507860454.037,833.868,824.821,846.685,847.233,0.000,0.000,0
1507860454.039,835.102,829.344,849.084,844.766,0.000,0.000,0
1507860454.041,838.871,829.893,848.056,857.857,0.000,0.000,0
1507860454.043,837.432,829.070,845.451,858.611,0.000,0.000,0
1507860454.045,841.065,826.328,846.342,856.212,0.000,0.000,0
1507860454.047,846.822,824.204,847.370,860.599,0.000,0.000,0
1507860454.049,849.358,828.179,848.810,864.369,0.000,0.000,0
1507860454.051,849.838,830.852,847.165,871.977,0.000,0.000,0
1507860454.053,839.557,826.671,845.863,867.659,0.000,0.000,0
1507860454.055,839.831,824.615,845.794,865.191,0.000,0.000,0
1507860454.057,837.843,823.792,844.492,853.950,0.000,0.000,0
1507860454.059,839.146,823.587,844.355,852.443,0.000,0.000,0
1507860454.061,835.033,825.712,845.040,853.128,0.000,0.000,0
1507860454.063,833.594,820.914,847.096,855.938,0.000,0.000,0
1507860454.065,836.130,819.611,845.383,859.022,0.000,0.000,0
1507860454.067,838.871,821.873,844.697,870.263,0.000,0.000,0
1507860454.069,841.750,828.590,842.573,866.768,0.000,0.000,0
1507860454.071,838.323,829.687,842.024,854.430,0.000,0.000,0
1507860454.073,842.573,832.703,842.161,856.418,0.000,0.000,0
1507860454.075,841.407,831.949,840.928,858.680,0.000,0.000,0
1507860454.077,833.457,832.360,841.613,849.632,0.000,0.000,0
1507860454.079,830.167,831.058,843.806,844.081,0.000,0.000,0
1507860454.081,828.316,829.070,843.806,844.560,0.000,0.000,0
1507860454.083,830.784,828.727,845.726,848.124,0.000,0.000,0
1507860454.085,839.831,826.260,848.947,860.736,0.000,0.000,0
1507860454.087,838.666,822.490,847.370,861.970,0.000,0.000,0
1507860454.089,845.246,819.886,844.492,862.244,0.000,0.000,0
1507860454.091,854.704,822.490,843.806,859.160,0.000,0.000,0
1507860454.093,852.031,824.478,846.137,858.748,0.000,0.000,0
1507860454.095,845.657,824.272,847.096,860.736,0.000,0.000,0
1507860454.097,842.573,825.575,846.959,858.406,0.000,0.000,0
1507860454.099,840.928,821.942,845.794,855.664,0.000,0.000,0
1507860454.101,843.327,819.817,847.028,863.820,0.000,0.000,0
1507860454.103,839.283,818.515,842.367,858.543,0.000,0.000,0
1507860454.105,841.682,822.285,842.367,856.898,0.000,0.000,0
1507860454.107,843.943,826.466,845.383,859.571,0.000,0.000,0
1507860454.109,851.140,823.313,845.177,866.082,0.000,0.000,0
1507860454.111,856.007,825.506,844.697,869.441,0.000,0.000,0
1507860454.113,856.281,827.905,844.012,864.643,0.000,0.000,0
1507860454.115,851.894,827.699,843.806,857.240,0.000,0.000,0
1507860454.117,850.181,826.808,841.956,860.667,0.000,0.000,0
1507860454.119,843.601,829.276,843.052,860.736,0.000,0.000,0
1507860454.121,832.703,829.002,841.956,849.495,0.000,0.000,0
1507860454.123,835.856,833.594,843.464,846.822,0.000,0.000,0
1507860454.125,839.762,832.223,844.697,851.963,0.000,0.000,0
1507860454.127,834.005,825.575,845.451,860.805,0.000,0.000,0
1507860454.129,836.198,825.643,845.109,860.873,0.000,0.000,0
1507860454.131,844.766,827.219,845.040,862.038,0.000,0.000,0
1507860454.133,847.508,826.534,845.246,863.889,0.000,0.000,0
1507860454.135,840.242,821.393,843.190,862.929,0.000,0.000,0
1507860454.137,833.457,820.503,844.423,858.200,0.000,0.000,0
1507860454.139,825.986,818.378,844.697,842.641,0.000,0.000,0
1507860454.141,827.631,815.842,846.891,848.262,0.000,0.000,0
1507860454.143,826.808,811.935,848.262,851.209,0.000,0.000,0
1507860454.145,831.400,812.826,847.919,850.798,0.000,0.000,0
1507860454.147,840.174,820.571,845.451,861.421,0.000,0.000,0
1507860454.149,852.031,821.736,843.532,874.992,0.000,0.000,0
1507860454.151,855.116,820.091,844.355,869.783,0.000,0.000,0
1507860454.153,845.931,816.321,843.738,862.724,0.000,0.000,0
1507860454.155,833.183,812.757,844.081,857.926,0.000,0.000,0
1507860454.157,837.432,816.321,844.834,862.724,0.000,0.000,0
1507860454.159,838.323,823.107,843.875,858.954,0.000,0.000,0
1507860454.161,837.158,827.699,843.875,856.555,0.000,0.000,0
1507860454.163,837.021,830.441,845.794,856.692,0.000,0.000,0
