timestamps,TP9,FP1,FP2,TP10,n/a,n/a,Marker0
1508374118.264,841.065,818.583,848.604,836.061,0.000,0.000,0
1508374118.266,843.738,817.624,848.124,838.940,0.000,0.000,0
1508374118.268,851.757,817.350,847.302,846.617,0.000,0.000,0
1508374118.270,841.819,813.991,846.274,837.089,0.000,0.000,0
1508374118.272,843.052,813.923,845.588,834.211,0.000,0.000,0
1508374118.274,846.479,815.225,843.327,828.179,0.000,0.000,0
1508374118.276,853.402,815.842,846.068,833.799,0.000,0.000,0
1508374118.278,851.552,817.898,847.713,840.242,0.000,0.000,0
1508374118.280,849.153,818.241,849.153,838.255,0.000,0.000,0
1508374118.282,846.068,818.789,850.044,834.005,0.000,0.000,0
1508374118.284,847.233,819.749,849.906,839.077,0.000,0.000,0
1508374118.286,845.451,816.253,847.850,841.682,0.000,0.000,0
1508374118.288,846.959,815.910,846.891,840.242,0.000,0.000,0
1508374118.290,843.395,817.898,845.931,829.207,0.000,0.000,0
1508374118.292,849.016,818.583,847.165,835.239,0.000,0.000,0
1508374118.294,845.520,817.213,846.411,838.186,0.000,0.000,0
1508374118.296,850.592,814.060,844.149,836.610,0.000,0.000,0
1508374118.298,851.209,813.511,844.834,840.516,0.000,0.000,0
1508374118.300,847.508,814.197,849.290,845.794,0.000,0.000,0
1508374118.302,843.532,814.608,851.620,843.601,0.000,0.000,0
1508374118.304,847.165,818.104,852.237,844.766,0.000,0.000,0
1508374118.306,844.560,820.297,852.237,839.557,0.000,0.000,0
1508374118.308,847.233,820.640,850.249,835.239,0.000,0.000,0
1508374118.310,850.318,820.640,849.016,832.292,0.000,0.000,0
1508374118.312,845.177,817.829,846.205,827.768,0.000,0.000,0
1508374118.314,846.959,814.951,841.339,824.546,0.000,0.000,0
1508374118.316,852.100,816.116,841.887,825.712,0.000,0.000,0
1508374118.318,854.567,816.801,844.492,841.545,0.000,0.000,0
1508374118.320,844.972,820.845,843.190,839.420,0.000,0.000,0
1508374118.322,838.323,820.434,845.177,839.625,0.000,0.000,0
1508374118.324,832.908,820.297,847.096,824.615,0.000,0.000,0
1508374118.326,834.759,820.503,845.726,825.917,0.000,0.000,0
1508374118.328,833.388,818.583,844.629,820.982,0.000,0.000,0
1508374118.330,842.504,817.281,844.218,825.712,0.000,0.000,0
1508374118.332,847.645,815.225,845.109,824.821,0.000,0.000,0
1508374118.334,851.826,813.169,847.782,835.239,0.000,0.000,0
1508374118.336,841.819,812.278,844.903,829.550,0.000,0.000,0
1508374118.338,832.977,813.100,847.919,829.824,0.000,0.000,0
1508374118.340,832.977,817.624,850.181,833.594,0.000,0.000,0
1508374118.342,838.734,819.200,849.906,834.142,0.000,0.000,0
1508374118.344,838.803,820.160,849.769,832.360,0.000,0.000,0
1508374118.346,839.283,821.942,848.330,831.126,0.000,0.000,0
1508374118.348,843.464,822.216,846.617,830.509,0.000,0.000,0
1508374118.350,847.508,819.474,845.657,833.045,0.000,0.000,0
1508374118.352,853.402,816.253,846.342,840.105,0.000,0.000,0
1508374118.354,849.769,815.705,841.682,832.908,0.000,0.000,0
1508374118.356,850.249,816.047,838.597,833.183,0.000,0.000,0
1508374118.358,845.383,817.213,843.943,839.214,0.000,0.000,0
1508374118.360,836.610,817.624,844.697,838.392,0.000,0.000,0
1508374118.362,822.764,818.515,843.943,823.655,0.000,0.000,0
1508374118.364,824.683,820.777,843.738,817.624,0.000,0.000,0
1508374118.366,832.017,820.228,844.218,822.216,0.000,0.000,0
1508374118.368,848.262,819.474,846.411,831.880,0.000,0.000,0
1508374118.370,856.418,818.172,843.875,825.026,0.000,0.000,0
1508374118.372,857.926,815.499,843.806,823.792,0.000,0.000,0
1508374118.374,851.757,815.842,844.972,823.313,0.000,0.000,0
1508374118.375,851.620,816.938,847.782,834.074,0.000,0.000,0
1508374118.377,844.560,818.515,848.262,834.279,0.000,0.000,0
1508374118.379,844.218,823.107,850.729,835.033,0.000,0.000,0
1508374118.381,844.972,823.450,849.769,840.448,0.000,0.000,0
1508374118.383,841.956,821.942,849.016,841.956,0.000,0.000,0
1508374118.385,837.501,821.393,844.286,839.077,0.000,0.000,0
1508374118.387,832.634,815.979,842.778,832.634,0.000,0.000,0
1508374118.389,840.105,814.814,843.806,829.824,0.000,0.000,0
1508374118.391,851.414,820.023,845.588,831.058,0.000,0.000,0
1508374118.393,859.776,823.724,845.246,837.021,0.000,0.000,0
1508374118.395,862.724,824.478,845.931,842.436,0.000,0.000,0
1508374118.397,848.536,825.712,847.233,843.190,0.000,0.000,0
1508374118.399,847.713,824.409,848.330,853.882,0.000,0.000,0
1508374118.401,847.713,820.365,847.028,843.669,0.000,0.000,0
1508374118.403,840.859,819.337,844.697,828.179,0.000,0.000,0
1508374118.405,840.448,822.696,846.548,830.235,0.000,0.000,0
1508374118.407,848.193,822.422,847.096,838.117,0.000,0.000,0
1508374118.409,856.212,821.325,845.863,838.117,0.000,0.000,0
1508374118.411,854.293,821.462,844.081,837.569,0.000,0.000,0
1508374118.413,851.140,818.995,845.726,836.061,0.000,0.000,0
1508374118.415,847.233,818.241,846.754,838.049,0.000,0.000,0
1508374118.417,844.218,817.555,848.262,838.803,0.000,0.000,0
1508374118.419,845.931,820.503,849.632,846.068,0.000,0.000,0
1508374118.421,838.460,820.777,847.576,840.105,0.000,0.000,0
1508374118.423,835.719,823.450,846.068,834.211,0.000,0.000,0
1508374118.425,831.058,823.930,847.165,830.235,0.000,0.000,0
1508374118.427,842.984,821.531,848.193,829.893,0.000,0.000,0
1508374118.429,850.523,820.297,849.153,832.908,0.000,0.000,0
1508374118.431,856.761,820.365,846.548,839.968,0.000,0.000,0
1508374118.433,845.657,819.886,847.850,835.993,0.000,0.000,0
1508374118.435,835.719,817.898,845.177,834.005,0.000,0.000,0
1508374118.437,830.578,817.281,846.822,828.111,0.000,0.000,0
1508374118.439,838.117,821.325,847.508,829.961,0.000,0.000,0
1508374118.441,837.158,821.188,849.221,829.961,0.000,0.000,0
1508374118.443,840.174,817.624,850.318,830.989,0.000,0.000,0
1508374118.445,840.585,815.362,848.399,830.578,0.000,0.000,0
1508374118.447,843.464,813.511,845.657,828.796,0.000,0.000,0
1508374118.449,846.000,816.253,846.000,830.921,0.000,0.000,0
1508374118.451,852.580,817.555,845.588,833.457,0.000,0.000,0
1508374118.453,862.792,817.487,845.588,847.028,0.000,0.000,0
1508374118.455,857.994,817.829,846.479,839.968,0.000,0.000,0
1508374118.457,844.766,820.434,845.794,834.142,0.000,0.000,0
1508374118.459,831.949,822.079,845.726,833.388,0.000,0.000,0
1508374118.461,824.958,820.708,843.532,831.538,0.000,0.000,0
1508374118.463,831.469,818.241,843.738,829.618,0.000,0.000,0
1508374118.465,846.205,820.091,844.903,838.803,0.000,0.000,0
1508374118.467,847.302,822.147,846.479,835.650,0.000,0.000,0
1508374118.469,840.722,819.132,848.124,832.908,0.000,0.000,0
1508374118.471,842.847,818.241,849.838,832.360,0.000,0.000,0
1508374118.473,853.745,819.406,849.769,840.448,0.000,0.000,0
1508374118.475,847.508,819.337,847.165,837.295,0.000,0.000,0
1508374118.477,836.815,818.241,847.096,840.379,0.000,0.000,0
1508374118.479,827.357,819.063,846.822,842.024,0.000,0.000,0
1508374118.481,831.880,820.503,847.439,839.146,0.000,0.000,0
1508374118.483,843.464,822.010,850.523,840.722,0.000,0.000,0
1508374118.485,850.798,822.422,849.701,851.894,0.000,0.000,0
1508374118.487,847.028,824.204,850.318,846.068,0.000,0.000,0
1508374118.489,845.794,824.958,847.508,834.622,0.000,0.000,0
1508374118.491,850.112,828.590,847.096,825.986,0.000,0.000,0
1508374118.493,846.205,822.285,849.564,831.263,0.000,0.000,0
1508374118.495,845.794,818.172,851.209,836.267,0.000,0.000,0
1508374118.497,843.464,819.200,850.866,836.541,0.000,0.000,0
1508374118.499,844.560,819.063,850.798,841.476,0.000,0.000,0
1508374118.501,844.012,820.571,852.443,832.908,0.000,0.000,0
1508374118.503,843.464,821.805,850.249,825.917,0.000,0.000,0
1508374118.505,838.940,821.805,850.592,827.219,0.000,0.000,0
1508374118.507,848.193,820.982,850.798,830.784,0.000,0.000,0
1508374118.509,843.875,817.898,849.290,828.522,0.000,0.000,0
1508374118.511,840.516,816.801,848.467,828.111,0.000,0.000,0
1508374118.513,845.040,817.144,850.249,834.622,0.000,0.000,0
1508374118.515,849.495,819.543,849.769,836.335,0.000,0.000,0
1508374118.517,845.794,822.216,849.153,834.279,0.000,0.000,0
1508374118.519,848.399,824.409,848.947,843.464,0.000,0.000,0
1508374118.521,843.121,825.575,848.536,840.448,0.000,0.000,0
1508374118.523,839.009,824.821,851.483,836.541,0.000,0.000,0
1508374118.525,840.585,822.010,853.265,839.900,0.000,0.000,0
1508374118.527,843.738,818.652,852.237,840.585,0.000,0.000,0
1508374118.529,844.218,819.749,849.632,839.625,0.000,0.000,0
1508374118.531,853.128,819.406,845.520,843.532,0.000,0.000,0
1508374118.533,848.330,814.951,845.109,835.239,0.000,0.000,0
1508374118.535,844.286,810.633,844.081,831.126,0.000,0.000,0
1508374118.537,836.678,816.938,844.423,829.755,0.000,0.000,0
1508374118.539,843.532,822.216,847.370,835.102,0.000,0.000,0
1508374118.541,841.956,820.640,848.330,835.581,0.000,0.000,0
1508374118.543,842.710,819.474,851.757,839.077,0.000,0.000,0
1508374118.545,843.738,821.805,853.334,836.610,0.000,0.000,0
1508374118.547,846.617,822.422,850.044,834.896,0.000,0.000,0
1508374118.549,847.576,822.559,846.137,839.968,0.000,0.000,0
1508374118.551,849.975,820.708,845.863,834.690,0.000,0.000,0
1508374118.553,859.434,818.857,845.588,837.980,0.000,0.000,0
1508374118.555,856.418,818.378,843.601,833.662,0.000,0.000,0
1508374118.557,850.729,818.515,842.847,830.852,0.000,0.000,0
1508374118.559,851.620,821.256,844.834,835.239,0.000,0.000,0
1508374118.561,847.233,822.285,847.096,837.226,0.000,0.000,0
1508374118.563,850.249,824.958,846.342,840.311,0.000,0.000,0
1508374118.565,859.708,827.151,847.165,843.464,0.000,0.000,0
1508374118.567,859.160,821.051,849.016,842.915,0.000,0.000,0
1508374118.569,857.309,819.749,846.548,844.423,0.000,0.000,0
1508374118.571,863.135,820.365,842.504,842.573,0.000,0.000,0
1508374118.573,859.228,821.325,843.738,844.423,0.000,0.000,0
1508374118.575,854.499,820.777,845.177,843.395,0.000,0.000,0
1508374118.577,848.467,820.160,846.137,841.887,0.000,0.000,0
1508374118.579,847.850,818.857,848.330,844.834,0.000,0.000,0
1508374118.581,842.573,816.938,851.277,842.710,0.000,0.000,0
1508374118.583,836.815,818.652,850.044,841.133,0.000,0.000,0
1508374118.585,841.956,820.297,847.165,842.230,0.000,0.000,0
1508374118.587,846.068,818.446,845.451,839.283,0.000,0.000,0
1508374118.589,848.262,816.390,846.617,845.794,0.000,0.000,0
1508374118.591,847.508,814.608,845.931,840.791,0.000,0.000,0
1508374118.593,848.056,814.128,846.891,844.834,0.000,0.000,0
1508374118.595,847.302,812.072,846.754,849.769,0.000,0.000,0
1508374118.597,847.370,809.536,844.081,840.859,0.000,0.000,0
1508374118.599,850.112,811.044,844.492,843.327,0.000,0.000,0
1508374118.601,842.504,816.801,844.149,835.650,0.000,0.000,0
1508374118.603,831.538,819.337,843.806,828.864,0.000,0.000,0
1508374118.605,827.014,821.051,847.645,826.397,0.000,0.000,0
1508374118.607,845.451,821.942,849.290,844.218,0.000,0.000,0
1508374118.609,850.729,820.365,848.741,848.673,0.000,0.000,0
1508374118.611,849.906,818.789,847.028,848.262,0.000,0.000,0
1508374118.613,851.689,819.680,846.068,850.935,0.000,0.000,0
1508374118.615,850.866,819.886,844.012,847.919,0.000,0.000,0
1508374118.617,848.673,822.285,844.286,851.414,0.000,0.000,0
1508374118.619,845.588,820.845,847.096,852.443,0.000,0.000,0
1508374118.621,838.049,816.253,848.399,845.314,0.000,0.000,0
1508374118.623,839.009,816.596,848.536,839.146,0.000,0.000,0
1508374118.625,843.121,818.857,849.084,834.896,0.000,0.000,0
1508374118.627,844.423,818.857,846.137,833.320,0.000,0.000,0
1508374118.629,849.564,818.378,846.959,833.045,0.000,0.000,0
1508374118.631,854.773,816.321,848.604,839.420,0.000,0.000,0
1508374118.633,854.362,814.334,848.124,834.211,0.000,0.000,0
1508374118.635,855.047,816.527,846.891,833.457,0.000,0.000,0
1508374118.637,850.181,821.462,845.931,827.905,0.000,0.000,0
1508374118.639,854.636,825.300,848.399,839.831,0.000,0.000,0
1508374118.641,853.882,824.752,846.411,846.617,0.000,0.000,0
1508374118.643,850.112,822.627,846.685,841.956,0.000,0.000,0
1508374118.645,844.081,820.982,846.342,838.049,0.000,0.000,0
1508374118.647,845.657,819.200,846.411,840.037,0.000,0.000,0
1508374118.649,850.112,817.144,849.153,843.875,0.000,0.000,0
1508374118.651,850.798,815.910,850.729,850.455,0.000,0.000,0
1508374118.653,849.084,816.321,849.016,842.093,0.000,0.000,0
1508374118.655,849.906,818.446,846.068,834.622,0.000,0.000,0
1508374118.657,845.863,821.531,847.782,833.799,0.000,0.000,0
1508374118.659,842.161,823.450,849.838,839.214,0.000,0.000,0
1508374118.661,844.766,823.381,850.455,846.754,0.000,0.000,0
1508374118.663,844.903,825.712,848.810,846.959,0.000,0.000,0
1508374118.665,849.838,828.179,847.782,844.903,0.000,0.000,0
1508374118.667,856.486,823.244,846.754,846.205,0.000,0.000,0
1508374118.669,859.160,820.091,850.386,852.511,0.000,0.000,0
1508374118.671,853.265,818.789,849.221,843.532,0.000,0.000,0
1508374118.673,866.014,822.764,847.096,846.891,0.000,0.000,0
1508374118.675,864.506,822.353,844.560,845.520,0.000,0.000,0
1508374118.677,851.277,820.982,845.109,846.685,0.000,0.000,0
1508374118.679,845.794,821.668,849.564,853.402,0.000,0.000,0
1508374118.681,849.358,822.970,850.249,853.539,0.000,0.000,0
1508374118.683,857.103,824.821,852.511,860.942,0.000,0.000,0
1508374118.685,851.277,821.668,852.374,853.128,0.000,0.000,0
1508374118.687,849.153,819.680,850.523,845.588,0.000,0.000,0
1508374118.689,845.657,821.873,849.975,842.915,0.000,0.000,0
1508374118.691,852.922,818.652,849.358,847.302,0.000,0.000,0
1508374118.693,851.620,817.007,850.318,850.181,0.000,0.000,0
1508374118.695,843.464,817.898,848.878,850.455,0.000,0.000,0
1508374118.697,833.594,818.515,847.233,843.943,0.000,0.000,0
1508374118.699,840.722,820.091,846.548,843.395,0.000,0.000,0
1508374118.701,849.358,820.571,844.149,840.859,0.000,0.000,0
1508374118.703,851.003,822.147,847.096,836.678,0.000,0.000,0
1508374118.705,838.049,824.135,846.411,828.179,0.000,0.000,0
1508374118.707,838.871,826.534,844.423,831.675,0.000,0.000,0
1508374118.709,842.778,821.531,846.411,834.348,0.000,0.000,0
1508374118.711,848.193,816.184,848.056,840.791,0.000,0.000,0
1508374118.713,849.975,814.402,846.342,837.843,0.000,0.000,0
1508374118.715,852.443,814.060,844.492,837.295,0.000,0.000,0
1508374118.717,855.595,815.705,842.573,845.177,0.000,0.000,0
1508374118.719,855.047,820.160,844.766,849.564,0.000,0.000,0
1508374118.721,843.258,819.474,849.701,845.657,0.000,0.000,0
1508374118.723,842.436,820.228,851.552,845.040,0.000,0.000,0
1508374118.725,841.956,816.801,848.193,842.024,0.000,0.000,0
1508374118.727,852.374,818.926,846.342,844.766,0.000,0.000,0
1508374118.729,856.624,821.119,846.891,845.109,0.000,0.000,0
1508374118.731,858.680,824.341,844.903,841.065,0.000,0.000,0
1508374118.733,866.014,824.478,845.588,842.641,0.000,0.000,0
1508374118.735,860.873,819.132,846.479,839.968,0.000,0.000,0
1508374118.737,853.196,819.611,848.810,836.541,0.000,0.000,0
1508374118.739,845.040,820.091,848.673,835.376,0.000,0.000,0
1508374118.741,848.467,818.926,848.330,842.298,0.000,0.000,0
1508374118.743,847.302,818.172,849.564,839.146,0.000,0.000,0
1508374118.745,843.806,818.857,850.181,834.142,0.000,0.000,0
1508374118.747,848.810,821.736,851.140,834.828,0.000,0.000,0
1508374118.749,854.430,820.503,852.580,838.940,0.000,0.000,0
1508374118.751,854.088,820.228,851.963,837.980,0.000,0.000,0
1508374118.753,849.495,820.091,850.592,836.747,0.000,0.000,0
1508374118.755,845.931,820.365,850.592,836.267,0.000,0.000,0
1508374118.757,851.003,821.188,852.031,848.056,0.000,0.000,0
1508374118.759,850.798,824.821,851.552,850.181,0.000,0.000,0
1508374118.761,851.826,826.808,850.660,847.645,0.000,0.000,0
1508374118.763,854.499,823.381,849.427,846.000,0.000,0.000,0
1508374118.765,850.660,821.188,850.592,844.629,0.000,0.000,1
1508374118.767,849.906,821.462,850.455,841.407,0.000,0.000,0
1508374118.769,850.798,818.583,849.495,835.993,0.000,0.000,0
1508374118.771,855.801,816.801,850.455,840.242,0.000,0.000,0
1508374118.773,858.131,818.446,849.975,841.750,0.000,0.000,0
1508374118.775,859.571,818.857,847.233,845.726,0.000,0.000,0
1508374118.777,854.225,820.640,846.479,846.000,0.000,0.000,0
1508374118.779,852.374,821.325,848.947,848.947,0.000,0.000,0
1508374118.781,851.277,819.543,848.467,845.246,0.000,0.000,0
1508374118.783,848.673,819.817,846.342,847.782,0.000,0.000,0
1508374118.785,841.750,817.418,845.863,845.040,0.000,0.000,0
1508374118.787,840.585,815.636,846.342,840.448,0.000,0.000,0
1508374118.789,847.370,817.555,845.451,831.743,0.000,0.000,0
1508374118.791,860.325,820.228,843.258,833.114,0.000,0.000,0
1508374118.793,867.179,819.269,845.520,836.678,0.000,0.000,0
1508374118.795,869.167,819.611,847.713,840.791,0.000,0.000,0
1508374118.797,856.281,820.708,847.028,843.669,0.000,0.000,0
1508374118.799,848.467,822.216,850.249,846.205,0.000,0.000,0
1508374118.801,838.255,820.160,849.221,835.102,0.000,0.000,0
1508374118.803,837.638,819.680,848.056,834.142,0.000,0.000,0
1508374118.805,833.799,821.942,846.959,825.643,0.000,0.000,0
1508374118.807,842.093,822.147,846.137,829.687,0.000,0.000,0
1508374118.809,844.149,818.309,847.439,835.993,0.000,0.000,0
1508374118.811,843.943,814.334,845.657,834.211,0.000,0.000,0
1508374118.813,849.769,814.197,843.669,832.429,0.000,0.000,0
1508374118.815,851.072,813.991,837.980,832.703,0.000,0.000,0
1508374118.817,842.436,812.826,840.654,840.585,0.000,0.000,0
1508374118.819,845.657,811.044,845.040,850.660,0.000,0.000,0
1508374118.821,838.734,811.935,845.246,838.940,0.000,0.000,0
1508374118.823,842.436,816.321,846.685,843.327,0.000,0.000,0
1508374118.825,852.237,820.023,847.233,846.617,0.000,0.000,0
1508374118.827,854.293,820.297,846.617,839.762,0.000,0.000,0
1508374118.829,850.318,822.970,843.532,827.973,0.000,0.000,0
1508374118.831,854.636,821.942,843.532,829.070,0.000,0.000,0
1508374118.833,858.131,817.418,844.286,842.915,0.000,0.000,0
1508374118.835,850.181,814.471,843.669,843.327,0.000,0.000,0
1508374118.837,846.685,814.334,843.875,840.311,0.000,0.000,0
1508374118.839,845.383,817.075,845.246,837.569,0.000,0.000,0
1508374118.841,839.557,817.555,844.492,831.263,0.000,0.000,0
1508374118.843,841.339,817.418,845.520,835.856,0.000,0.000,0
1508374118.845,844.766,818.241,846.205,834.348,0.000,0.000,0
1508374118.847,842.230,818.515,846.000,831.195,0.000,0.000,0
1508374118.849,845.863,817.075,845.657,842.915,0.000,0.000,0
1508374118.851,848.741,817.213,848.193,841.750,0.000,0.000,0
1508374118.853,840.448,815.019,847.370,834.896,0.000,0.000,0
1508374118.855,837.706,815.156,847.370,835.307,0.000,0.000,0
1508374118.857,845.314,820.091,844.560,843.395,0.000,0.000,0
1508374118.859,853.745,823.313,844.903,844.218,0.000,0.000,0
1508374118.861,851.689,823.313,847.165,843.464,0.000,0.000,0
1508374118.863,852.237,822.422,849.084,839.968,0.000,0.000,0
1508374118.865,854.499,823.655,850.592,841.750,0.000,0.000,0
1508374118.867,855.732,821.805,848.399,847.850,0.000,0.000,0
1508374118.869,852.717,819.063,847.987,843.806,0.000,0.000,0
1508374118.871,848.536,815.636,847.782,836.884,0.000,0.000,0
1508374118.873,859.571,816.527,848.741,846.411,0.000,0.000,0
1508374118.875,856.692,816.253,848.878,847.645,0.000,0.000,0
1508374118.877,848.124,819.200,850.112,843.258,0.000,0.000,0
1508374118.879,846.617,821.188,851.620,851.209,0.000,0.000,0
1508374118.881,839.762,819.063,848.056,852.305,0.000,0.000,0
1508374118.883,836.404,818.583,848.878,840.037,0.000,0.000,0
1508374118.885,840.996,817.624,848.262,838.392,0.000,0.000,0
1508374118.887,845.383,818.789,845.451,833.045,0.000,0.000,0
1508374118.889,853.676,820.023,844.355,839.831,0.000,0.000,0
1508374118.891,855.664,821.188,843.738,838.392,0.000,0.000,0
1508374118.893,851.552,819.611,846.479,830.509,0.000,0.000,0
1508374118.895,852.648,820.914,847.850,838.186,0.000,0.000,0
1508374118.897,852.785,823.792,848.604,843.943,0.000,0.000,0
1508374118.899,847.919,825.643,849.495,849.016,0.000,0.000,0
1508374118.901,849.701,824.478,854.362,863.615,0.000,0.000,0
1508374118.903,845.040,824.341,853.950,856.418,0.000,0.000,0
1508374118.905,844.972,825.300,850.866,851.689,0.000,0.000,0
1508374118.907,838.529,821.873,850.660,850.181,0.000,0.000,0
1508374118.909,849.838,821.873,850.592,847.782,0.000,0.000,0
1508374118.911,860.462,820.091,848.741,841.065,0.000,0.000,0
1508374118.913,865.739,820.503,846.548,835.033,0.000,0.000,0
1508374118.915,869.646,823.176,847.508,840.516,0.000,0.000,0
1508374118.917,863.683,822.079,849.290,850.249,0.000,0.000,0
1508374118.919,854.567,821.736,849.084,854.225,0.000,0.000,0
1508374118.921,845.657,820.640,847.850,852.511,0.000,0.000,0
1508374118.923,845.314,821.051,848.467,850.866,0.000,0.000,0
1508374118.925,851.963,822.285,849.221,849.084,0.000,0.000,0
1508374118.927,852.031,818.104,851.414,848.878,0.000,0.000,0
1508374118.929,845.246,817.418,850.798,846.617,0.000,0.000,0
1508374118.931,849.838,816.938,850.798,845.109,0.000,0.000,0
1508374118.933,862.929,815.842,846.617,849.084,0.000,0.000,0
1508374118.935,861.010,816.321,847.576,853.539,0.000,0.000,0
1508374118.937,853.882,816.390,847.096,847.850,0.000,0.000,0
1508374118.939,850.181,819.132,847.508,846.617,0.000,0.000,0
1508374118.941,846.205,824.067,847.370,840.037,0.000,0.000,0
1508374118.943,844.355,821.942,850.112,839.077,0.000,0.000,0
1508374118.945,845.588,818.515,850.386,841.887,0.000,0.000,0
1508374118.947,848.193,818.309,850.798,843.258,0.000,0.000,0
1508374118.949,846.479,817.966,846.548,835.239,0.000,0.000,0
1508374118.951,849.906,818.995,846.754,837.364,0.000,0.000,0
1508374118.953,845.177,818.172,844.218,836.952,0.000,0.000,0
1508374118.955,845.451,817.213,846.137,837.226,0.000,0.000,0
1508374118.957,838.117,817.418,846.205,831.675,0.000,0.000,0
1508374118.959,833.662,819.954,849.221,833.731,0.000,0.000,0
1508374118.961,831.538,821.462,850.318,835.650,0.000,0.000,0
1508374118.963,839.009,823.107,851.826,837.912,0.000,0.000,0
1508374118.965,847.508,821.942,851.826,837.706,0.000,0.000,0
1508374118.967,854.225,820.845,850.798,840.654,0.000,0.000,0
1508374118.969,851.826,819.680,848.536,838.049,0.000,0.000,0
1508374118.971,857.377,817.075,848.056,840.242,0.000,0.000,0
1508374118.973,855.938,814.608,847.850,842.847,0.000,0.000,0
1508374118.975,850.935,815.705,846.274,841.956,0.000,0.000,0
1508374118.977,847.645,818.720,845.520,837.843,0.000,0.000,0
1508374118.979,846.959,822.216,846.548,839.488,0.000,0.000,0
1508374118.981,846.685,822.010,847.713,842.847,0.000,0.000,0
1508374118.983,851.277,822.079,849.564,846.274,0.000,0.000,0
1508374118.985,854.088,820.160,851.552,844.492,0.000,0.000,0
1508374118.987,855.253,819.749,851.414,843.875,0.000,0.000,0
1508374118.989,858.337,821.942,851.346,847.096,0.000,0.000,0
1508374118.991,862.312,820.982,850.112,848.604,0.000,0.000,0
1508374118.993,859.022,818.378,849.358,844.972,0.000,0.000,0
1508374118.995,855.801,815.225,848.193,846.411,0.000,0.000,0
1508374118.997,851.963,816.801,848.878,844.492,0.000,0.000,0
1508374118.999,851.757,820.571,849.906,843.532,0.000,0.000,0
1508374119.001,844.081,819.543,850.798,847.508,0.000,0.000,0
1508374119.003,839.283,821.531,849.358,840.654,0.000,0.000,0
1508374119.005,832.840,821.256,852.237,835.170,0.000,0.000,0
1508374119.007,843.052,822.216,852.785,839.077,0.000,0.000,0
1508374119.009,854.430,823.381,852.305,843.601,0.000,0.000,0
1508374119.011,859.297,823.724,848.673,845.657,0.000,0.000,0
1508374119.013,861.764,821.736,846.959,848.124,0.000,0.000,0
1508374119.015,867.659,818.995,847.987,857.926,0.000,0.000,0
1508374119.017,864.643,818.309,851.003,855.321,0.000,0.000,0
1508374119.019,858.817,817.144,851.826,855.047,0.000,0.000,0
1508374119.021,843.395,819.817,851.346,845.040,0.000,0.000,0
1508374119.023,848.193,824.409,849.701,850.729,0.000,0.000,0
1508374119.025,851.209,821.531,848.193,848.947,0.000,0.000,0
1508374119.027,854.430,820.982,846.479,845.109,0.000,0.000,0
1508374119.029,850.798,820.228,846.754,846.822,0.000,0.000,0
1508374119.031,858.131,819.886,846.411,844.081,0.000,0.000,0
1508374119.033,866.973,819.200,845.520,844.560,0.000,0.000,0
1508374119.035,855.116,817.624,842.710,836.198,0.000,0.000,0
1508374119.037,852.031,815.019,841.956,834.553,0.000,0.000,0
1508374119.039,841.682,815.773,844.149,836.267,0.000,0.000,0
1508374119.041,836.130,819.543,848.124,843.669,0.000,0.000,0
1508374119.043,836.473,818.104,849.769,847.302,0.000,0.000,0
1508374119.045,839.077,819.269,848.467,843.738,0.000,0.000,0
1508374119.047,843.806,819.817,848.193,847.919,0.000,0.000,0
1508374119.049,839.900,819.063,847.165,843.601,0.000,0.000,0
1508374119.051,848.399,816.527,843.601,845.657,0.000,0.000,0
1508374119.053,846.754,817.487,844.081,833.594,0.000,0.000,0
1508374119.055,847.028,819.680,847.987,835.102,0.000,0.000,0
1508374119.057,847.645,818.172,846.274,843.875,0.000,0.000,0
1508374119.059,847.439,819.474,846.205,842.504,0.000,0.000,0
1508374119.061,846.205,819.954,847.370,842.436,0.000,0.000,0
1508374119.063,851.209,819.611,848.467,846.754,0.000,0.000,0
1508374119.065,849.153,820.982,846.959,841.545,0.000,0.000,0
1508374119.067,853.882,824.752,846.822,839.968,0.000,0.000,0
1508374119.069,862.038,822.833,846.205,845.863,0.000,0.000,0
1508374119.071,863.957,821.599,845.314,845.520,0.000,0.000,0
1508374119.073,858.063,818.583,846.274,839.694,0.000,0.000,0
1508374119.075,848.673,812.757,844.492,834.142,0.000,0.000,0
1508374119.077,842.230,812.003,845.863,835.650,0.000,0.000,0
1508374119.079,838.460,815.362,846.617,843.806,0.000,0.000,0
1508374119.081,842.298,816.801,848.124,848.056,0.000,0.000,0
1508374119.083,846.685,819.474,849.153,846.548,0.000,0.000,0
1508374119.085,841.613,821.736,845.657,836.335,0.000,0.000,0
1508374119.087,844.218,823.998,848.878,843.121,0.000,0.000,0
1508374119.089,856.281,822.079,850.318,851.209,0.000,0.000,0
1508374119.091,860.462,819.749,849.427,847.987,0.000,0.000,0
1508374119.093,862.244,818.720,847.370,841.613,0.000,0.000,0
1508374119.095,855.664,815.773,844.423,844.286,0.000,0.000,0
1508374119.097,842.984,813.648,845.520,847.233,0.000,0.000,0
1508374119.099,842.573,813.991,847.370,849.906,0.000,0.000,0
1508374119.101,850.318,814.471,847.919,856.966,0.000,0.000,0
1508374119.103,847.439,813.511,846.959,849.221,0.000,0.000,0
1508374119.105,846.685,813.169,847.713,847.370,0.000,0.000,0
1508374119.107,844.149,815.842,851.209,848.604,0.000,0.000,0
1508374119.109,854.704,817.007,852.031,849.564,0.000,0.000,0
1508374119.111,857.652,815.293,852.168,841.407,0.000,0.000,0
1508374119.113,854.979,816.047,851.209,839.625,0.000,0.000,0
1508374119.115,857.857,815.362,852.305,847.576,0.000,0.000,0
1508374119.117,851.483,816.596,850.044,845.314,0.000,0.000,0
1508374119.119,842.573,819.200,846.274,844.903,0.000,0.000,0
1508374119.121,839.077,822.216,849.427,840.174,0.000,0.000,0
1508374119.123,844.972,820.982,851.072,844.012,0.000,0.000,0
1508374119.125,848.262,816.938,850.318,842.161,0.000,0.000,0
1508374119.127,849.221,817.350,848.673,836.061,0.000,0.000,0
1508374119.129,853.196,817.075,848.124,836.404,0.000,0.000,0
1508374119.131,854.430,815.293,847.919,837.226,0.000,0.000,0
1508374119.133,857.446,816.938,847.576,843.532,0.000,0.000,0
1508374119.135,857.377,815.773,845.177,841.133,0.000,0.000,0
1508374119.137,850.386,816.253,845.109,839.488,0.000,0.000,0
1508374119.139,840.242,816.047,846.000,833.320,0.000,0.000,0
1508374119.141,841.065,815.156,845.177,839.625,0.000,0.000,0
1508374119.143,841.956,817.966,846.411,844.286,0.000,0.000,0
1508374119.145,847.302,818.104,848.673,848.673,0.000,0.000,0
1508374119.147,853.676,816.390,850.249,848.741,0.000,0.000,0
1508374119.149,846.205,814.265,848.536,840.105,0.000,0.000,0
1508374119.151,851.483,816.459,845.657,839.283,0.000,0.000,0
1508374119.153,853.882,820.160,843.738,831.743,0.000,0.000,0
1508374119.155,860.462,820.365,844.355,842.436,0.000,0.000,0
1508374119.157,855.116,818.789,846.891,848.124,0.000,0.000,0
1508374119.159,846.685,818.309,848.262,847.165,0.000,0.000,0
1508374119.161,842.915,821.462,850.866,843.464,0.000,0.000,0
1508374119.163,846.479,821.942,851.757,841.887,0.000,0.000,0
1508374119.165,848.056,819.817,849.016,837.295,0.000,0.000,0
1508374119.167,853.402,819.611,848.741,835.924,0.000,0.000,0
1508374119.169,854.567,820.503,848.056,840.791,0.000,0.000,0
1508374119.171,850.798,818.446,847.028,844.423,0.000,0.000,0
1508374119.173,854.841,817.007,844.081,844.560,0.000,0.000,0
1508374119.175,852.991,816.664,842.436,840.037,0.000,0.000,0
1508374119.177,848.399,820.091,847.370,842.093,0.000,0.000,0
1508374119.179,843.190,823.655,850.798,845.040,0.000,0.000,0
1508374119.181,848.741,826.191,849.632,846.137,0.000,0.000,0
1508374119.183,839.968,825.026,848.056,840.379,0.000,0.000,0
1508374119.185,829.344,823.039,846.891,827.425,0.000,0.000,0
1508374119.187,840.037,824.272,848.056,828.727,0.000,0.000,0
1508374119.189,855.938,821.805,850.044,839.694,0.000,0.000,0
1508374119.191,860.942,822.010,850.318,839.694,0.000,0.000,0
1508374119.193,863.546,824.067,847.987,838.117,0.000,0.000,0
1508374119.195,855.116,822.627,847.439,836.404,0.000,0.000,0
1508374119.197,848.878,822.833,846.891,835.650,0.000,0.000,0
1508374119.199,841.682,820.640,848.467,838.803,0.000,0.000,0
1508374119.201,832.908,816.870,847.645,841.819,0.000,0.000,0
1508374119.203,839.831,818.241,848.673,842.504,0.000,0.000,0
1508374119.205,849.221,817.075,850.386,852.511,0.000,0.000,0
1508374119.207,853.745,820.228,848.947,848.193,0.000,0.000,0
1508374119.209,852.031,822.490,849.084,843.669,0.000,0.000,0
1508374119.211,858.817,820.297,849.084,845.246,0.000,0.000,0
1508374119.213,862.312,822.216,849.153,842.573,0.000,0.000,0
1508374119.215,863.615,822.147,847.919,844.423,0.000,0.000,0
1508374119.217,855.458,820.571,846.342,855.458,0.000,0.000,0
1508374119.219,844.218,822.216,848.399,854.156,0.000,0.000,0
1508374119.221,835.033,820.708,847.576,841.270,0.000,0.000,0
1508374119.223,849.221,824.478,844.903,841.476,0.000,0.000,0
1508374119.225,849.495,824.821,846.548,838.803,0.000,0.000,0
1508374119.227,850.729,825.369,849.838,841.682,0.000,0.000,0
1508374119.229,862.724,822.559,851.963,844.492,0.000,0.000,0
1508374119.231,867.247,823.039,849.632,840.791,0.000,0.000,0
1508374119.233,869.783,826.328,852.100,847.782,0.000,0.000,0
1508374119.235,861.353,822.970,847.713,850.112,0.000,0.000,0
1508374119.237,854.293,820.091,846.617,850.729,0.000,0.000,0
1508374119.239,845.726,821.051,847.645,845.383,0.000,0.000,0
1508374119.241,841.202,821.256,849.016,842.847,0.000,0.000,0
1508374119.243,846.000,820.571,850.044,838.255,0.000,0.000,0
1508374119.245,852.717,824.683,850.386,836.198,0.000,0.000,0
1508374119.247,856.898,827.014,848.536,834.142,0.000,0.000,0
1508374119.249,855.116,823.244,848.536,849.358,0.000,0.000,0
1508374119.251,852.443,818.720,847.439,846.274,0.000,0.000,0
1508374119.253,853.334,818.172,846.205,837.843,0.000,0.000,0
1508374119.255,856.898,818.035,846.959,836.061,0.000,0.000,0
1508374119.257,860.530,818.446,846.754,843.875,0.000,0.000,0
1508374119.259,849.701,818.652,847.096,844.560,0.000,0.000,0
1508374119.261,851.277,821.462,850.318,848.604,0.000,0.000,0
1508374119.263,856.212,822.353,851.689,850.044,0.000,0.000,0
1508374119.265,856.966,823.792,847.987,859.022,0.000,0.000,0
1508374119.267,845.588,824.821,847.508,848.947,0.000,0.000,0
1508374119.269,847.233,821.668,845.520,839.488,0.000,0.000,0
1508374119.271,858.063,820.914,846.274,832.497,0.000,0.000,0
1508374119.273,862.107,818.583,849.427,841.613,0.000,0.000,0
1508374119.275,864.780,819.063,848.878,842.778,0.000,0.000,0
1508374119.277,858.268,819.543,845.177,841.476,0.000,0.000,0
1508374119.279,848.330,822.490,844.560,839.968,0.000,0.000,0
1508374119.281,847.233,823.039,846.068,842.984,0.000,0.000,0
1508374119.283,851.620,822.901,847.439,855.801,0.000,0.000,0
1508374119.285,847.987,822.422,848.878,841.202,0.000,0.000,0
1508374119.287,839.146,820.708,847.233,828.042,0.000,0.000,0
1508374119.289,840.859,820.845,848.467,828.522,0.000,0.000,0
1508374119.291,852.374,821.599,848.193,836.198,0.000,0.000,0
1508374119.293,857.994,817.281,846.959,838.255,0.000,0.000,0
1508374119.295,853.471,814.402,844.560,837.501,0.000,0.000,0
1508374119.297,843.395,812.072,842.641,832.497,0.000,0.000,0
1508374119.299,841.750,811.866,846.959,837.158,0.000,0.000,0
1508374119.301,843.806,810.221,847.850,853.059,0.000,0.000,0
1508374119.303,843.806,813.511,849.632,847.096,0.000,0.000,0
1508374119.305,839.214,815.499,850.044,834.485,0.000,0.000,0
1508374119.307,847.645,816.459,848.124,839.077,0.000,0.000,0
1508374119.309,849.838,819.406,844.355,837.021,0.000,0.000,0
1508374119.311,852.031,819.886,842.093,832.840,0.000,0.000,0
1508374119.313,856.898,817.898,844.766,839.283,0.000,0.000,0
1508374119.315,859.845,817.692,847.028,854.704,0.000,0.000,0
1508374119.317,846.274,818.378,847.302,849.495,0.000,0.000,0
1508374119.319,842.298,817.350,845.931,844.423,0.000,0.000,0
1508374119.321,837.158,819.337,847.508,837.021,0.000,0.000,0
1508374119.323,839.831,820.160,850.523,843.532,0.000,0.000,0
1508374119.325,837.021,821.531,846.685,842.298,0.000,0.000,0
1508374119.327,839.625,822.353,848.467,839.146,0.000,0.000,0
1508374119.329,849.632,821.051,849.769,836.678,0.000,0.000,0
1508374119.331,857.035,819.611,849.975,837.706,0.000,0.000,0
1508374119.333,867.247,818.720,847.439,846.891,0.000,0.000,0
1508374119.335,867.659,821.256,846.274,844.492,0.000,0.000,0
1508374119.337,864.506,820.228,845.794,840.311,0.000,0.000,0
1508374119.339,858.474,820.365,850.112,843.190,0.000,0.000,0
1508374119.341,850.798,820.845,849.016,844.834,0.000,0.000,0
1508374119.343,850.044,820.434,849.769,844.629,0.000,0.000,0
1508374119.345,850.386,817.898,849.975,844.355,0.000,0.000,0
1508374119.347,850.318,813.923,848.467,839.283,0.000,0.000,0
1508374119.349,853.265,811.935,848.604,852.168,0.000,0.000,0
1508374119.351,850.935,814.608,848.604,842.984,0.000,0.000,0
1508374119.353,846.548,817.007,847.370,831.949,0.000,0.000,0
1508374119.355,851.414,820.023,848.056,832.360,0.000,0.000,0
1508374119.357,859.160,819.886,847.645,845.383,0.000,0.000,0
1508374119.359,855.253,819.954,849.495,854.293,0.000,0.000,0
1508374119.361,847.439,820.503,847.508,852.511,0.000,0.000,0
1508374119.363,843.532,820.914,848.330,840.791,0.000,0.000,0
1508374119.365,848.673,819.749,850.523,850.318,0.000,0.000,0
1508374119.367,848.330,820.571,849.701,846.479,0.000,0.000,0
1508374119.369,850.729,821.462,845.246,838.392,0.000,0.000,0
1508374119.371,851.209,822.627,843.532,827.699,0.000,0.000,0
1508374119.373,862.929,820.708,841.613,831.538,0.000,0.000,0
1508374119.375,867.179,817.281,844.492,839.762,0.000,0.000,0
1508374119.377,862.175,817.761,846.754,848.262,0.000,0.000,0
1508374119.379,857.583,821.325,849.084,853.539,0.000,0.000,0
1508374119.381,853.813,824.067,852.237,849.975,0.000,0.000,0
1508374119.383,859.297,822.490,849.701,857.240,0.000,0.000,0
1508374119.385,851.414,821.462,848.467,852.854,0.000,0.000,0
1508374119.387,842.230,821.188,848.536,842.298,0.000,0.000,0
1508374119.389,848.673,825.026,848.810,837.775,0.000,0.000,0
1508374119.391,856.418,821.805,844.286,837.501,0.000,0.000,0
1508374119.393,857.446,820.091,846.205,838.666,0.000,0.000,0
1508374119.395,854.910,821.942,846.822,844.012,0.000,0.000,0
1508374119.397,855.390,823.518,848.124,842.436,0.000,0.000,0
1508374119.399,857.720,824.272,849.975,856.144,0.000,0.000,0
1508374119.401,848.536,823.998,850.318,847.919,0.000,0.000,0
1508374119.403,842.161,820.640,849.290,841.202,0.000,0.000,0
1508374119.405,838.255,825.026,846.959,833.457,0.000,0.000,0
1508374119.407,839.351,824.204,846.479,838.392,0.000,0.000,0
1508374119.409,844.286,820.503,846.822,840.722,0.000,0.000,0
1508374119.411,855.870,819.474,849.084,847.370,0.000,0.000,0
1508374119.413,858.200,819.886,848.741,843.943,0.000,0.000,0
1508374119.415,858.268,819.543,844.629,837.638,0.000,0.000,0
1508374119.417,860.119,818.583,842.367,847.439,0.000,0.000,0
1508374119.419,857.377,820.503,845.246,847.096,0.000,0.000,0
1508374119.421,848.947,824.204,846.205,838.392,0.000,0.000,0
1508374119.423,839.488,825.095,847.165,840.311,0.000,0.000,0
1508374119.425,841.476,824.958,845.246,842.024,0.000,0.000,0
1508374119.427,844.492,820.503,844.629,842.504,0.000,0.000,0
1508374119.429,841.819,817.418,845.794,845.520,0.000,0.000,0
1508374119.431,846.685,817.281,844.560,853.471,0.000,0.000,0
1508374119.433,849.016,815.019,841.202,843.875,0.000,0.000,0
1508374119.435,852.100,819.200,839.968,840.722,0.000,0.000,0
1508374119.437,839.488,821.805,839.831,834.005,0.000,0.000,0
1508374119.439,838.460,823.176,844.218,841.613,0.000,0.000,0
1508374119.441,839.351,821.805,845.794,843.258,0.000,0.000,0
1508374119.443,842.847,821.805,847.439,843.121,0.000,0.000,0
1508374119.445,846.959,822.079,846.000,844.423,0.000,0.000,0
1508374119.447,851.894,822.216,846.411,846.959,0.000,0.000,0
1508374119.449,860.393,823.244,847.987,855.664,0.000,0.000,0
1508374119.451,860.462,822.422,846.205,865.054,0.000,0.000,0
1508374119.453,853.745,819.474,846.274,855.253,0.000,0.000,0
1508374119.455,845.863,816.253,847.165,838.803,0.000,0.000,0
1508374119.457,851.689,819.200,848.878,843.395,0.000,0.000,0
1508374119.459,848.604,820.914,849.016,847.713,0.000,0.000,0
1508374119.461,848.399,822.696,850.660,851.620,0.000,0.000,0
1508374119.463,849.701,825.849,850.798,859.365,0.000,0.000,0
1508374119.465,844.903,824.821,849.564,848.604,0.000,0.000,0
1508374119.467,836.541,821.462,848.262,841.476,0.000,0.000,0
1508374119.469,836.952,820.091,849.701,833.799,0.000,0.000,0
1508374119.471,851.072,819.337,847.576,834.279,0.000,0.000,0
1508374119.473,853.539,815.019,847.165,836.952,0.000,0.000,0
1508374119.475,855.732,816.390,844.423,839.420,0.000,0.000,0
1508374119.477,851.483,820.708,840.996,841.339,0.000,0.000,0
1508374119.479,850.798,824.478,843.121,845.931,0.000,0.000,0
1508374119.481,848.124,823.244,843.601,849.564,0.000,0.000,0
1508374119.483,851.963,822.559,845.726,853.059,0.000,0.000,0
1508374119.485,844.423,820.777,846.685,844.834,0.000,0.000,2
1508374119.487,841.545,822.764,847.096,837.638,0.000,0.000,0
1508374119.489,840.174,822.353,843.669,840.722,0.000,0.000,0
1508374119.491,840.791,821.668,842.436,838.871,0.000,0.000,0
1508374119.493,845.314,818.789,844.972,832.703,0.000,0.000,0
1508374119.495,848.330,818.309,846.342,834.074,0.000,0.000,0
1508374119.497,849.906,820.571,842.298,849.769,0.000,0.000,0
1508374119.499,843.738,822.559,841.956,846.959,0.000,0.000,0
1508374119.501,841.133,823.792,843.052,849.975,0.000,0.000,0
1508374119.503,834.142,819.474,840.585,844.081,0.000,0.000,0
1508374119.505,837.364,816.047,839.009,840.996,0.000,0.000,0
1508374119.507,851.209,818.720,842.710,854.362,0.000,0.000,0
1508374119.509,851.003,818.926,844.355,856.692,0.000,0.000,0
1508374119.511,848.947,818.995,848.056,845.520,0.000,0.000,0
1508374119.513,857.789,816.527,848.947,844.423,0.000,0.000,0
1508374119.515,858.200,815.156,849.084,850.112,0.000,0.000,0
1508374119.517,857.720,816.733,850.318,855.801,0.000,0.000,0
1508374119.519,851.072,818.515,850.798,854.430,0.000,0.000,0
1508374119.521,844.629,821.256,851.003,851.346,0.000,0.000,0
1508374119.523,842.778,820.160,848.604,847.645,0.000,0.000,0
1508374119.525,850.249,821.805,849.769,846.685,0.000,0.000,0
1508374119.527,853.471,822.901,847.987,843.738,0.000,0.000,0
1508374119.529,853.265,820.023,846.685,846.068,0.000,0.000,0
1508374119.531,845.863,817.213,845.794,835.307,0.000,0.000,0
1508374119.533,841.476,814.814,846.137,830.235,0.000,0.000,0
1508374119.535,848.536,815.019,844.903,841.819,0.000,0.000,0
1508374119.537,849.564,816.184,841.682,838.186,0.000,0.000,0
1508374119.539,843.121,818.652,841.133,836.198,0.000,0.000,0
1508374119.541,835.444,819.817,841.065,831.880,0.000,0.000,0
1508374119.543,836.404,819.817,842.093,833.799,0.000,0.000,0
1508374119.545,839.420,821.942,843.738,837.912,0.000,0.000,0
1508374119.547,841.682,820.091,843.669,838.666,0.000,0.000,0
1508374119.549,837.638,817.555,844.697,837.364,0.000,0.000,0
1508374119.551,838.597,815.225,840.037,842.230,0.000,0.000,0
1508374119.553,852.374,815.910,840.516,837.158,0.000,0.000,0
1508374119.555,856.349,820.503,842.230,838.392,0.000,0.000,0
1508374119.557,854.019,822.147,842.984,846.274,0.000,0.000,0
1508374119.559,847.508,824.958,844.286,849.358,0.000,0.000,0
1508374119.561,852.100,825.232,846.205,850.729,0.000,0.000,0
1508374119.563,858.954,819.886,847.370,859.776,0.000,0.000,0
1508374119.565,853.128,816.253,846.959,854.225,0.000,0.000,0
1508374119.567,840.516,815.225,844.081,844.012,0.000,0.000,0
1508374119.569,838.666,818.172,846.342,839.009,0.000,0.000,0
1508374119.571,850.112,822.285,848.741,842.778,0.000,0.000,0
1508374119.573,862.724,820.914,845.794,845.931,0.000,0.000,0
1508374119.575,867.247,819.543,844.081,846.274,0.000,0.000,0
1508374119.577,861.079,820.914,845.726,847.302,0.000,0.000,0
1508374119.579,847.919,821.668,846.822,844.012,0.000,0.000,0
1508374119.581,839.831,819.132,847.096,841.613,0.000,0.000,0
1508374119.583,835.102,820.503,844.834,835.581,0.000,0.000,0
1508374119.585,833.936,818.995,842.847,839.488,0.000,0.000,0
1508374119.587,846.685,817.075,844.218,859.639,0.000,0.000,0
1508374119.589,843.395,816.527,841.270,849.016,0.000,0.000,0
1508374119.591,850.523,817.761,844.081,844.149,0.000,0.000,0
1508374119.593,856.898,817.761,845.931,841.819,0.000,0.000,0
1508374119.595,856.007,817.487,845.383,848.056,0.000,0.000,0
1508374119.597,851.277,818.515,843.052,851.894,0.000,0.000,0
1508374119.599,839.694,817.350,845.588,848.810,0.000,0.000,0
1508374119.601,826.466,816.733,846.754,839.694,0.000,0.000,0
1508374119.603,836.130,819.132,846.411,834.074,0.000,0.000,0
1508374119.605,844.560,818.652,844.972,837.638,0.000,0.000,0
1508374119.607,851.963,817.350,843.395,837.021,0.000,0.000,0
1508374119.609,846.617,816.801,843.327,835.239,0.000,0.000,0
1508374119.611,843.601,817.075,843.875,830.578,0.000,0.000,0
1508374119.613,852.237,817.075,844.081,827.151,0.000,0.000,0
1508374119.615,858.337,817.075,841.545,830.647,0.000,0.000,0
1508374119.617,857.103,812.894,843.669,849.838,0.000,0.000,0
1508374119.619,848.056,814.471,845.177,849.495,0.000,0.000,0
1508374119.621,841.750,819.406,840.791,837.158,0.000,0.000,0
1508374119.623,841.339,819.269,841.339,841.407,0.000,0.000,0
1508374119.625,836.198,812.072,840.654,835.033,0.000,0.000,0
1508374119.627,837.158,815.225,842.161,831.058,0.000,0.000,0
1508374119.629,841.956,814.265,843.190,830.647,0.000,0.000,0
1508374119.631,854.636,812.963,846.822,846.548,0.000,0.000,0
1508374119.633,857.240,812.483,846.205,842.573,0.000,0.000,0
1508374119.635,852.168,815.705,844.903,843.190,0.000,0.000,0
1508374119.637,834.553,817.555,846.617,839.283,0.000,0.000,0
1508374119.639,839.968,818.309,846.411,840.379,0.000,0.000,0
1508374119.641,842.367,815.499,843.121,836.678,0.000,0.000,0
1508374119.643,843.052,818.378,843.464,833.045,0.000,0.000,0
1508374119.645,842.298,818.035,842.984,830.167,0.000,0.000,0
1508374119.647,836.678,814.814,844.081,835.924,0.000,0.000,0
1508374119.649,832.497,812.894,845.794,840.996,0.000,0.000,0
1508374119.651,838.255,812.141,842.230,849.358,0.000,0.000,0
1508374119.653,851.620,815.568,840.722,846.617,0.000,0.000,0
1508374119.655,852.100,817.624,842.161,837.226,0.000,0.000,0
1508374119.657,846.411,819.886,844.012,835.444,0.000,0.000,0
1508374119.659,842.641,820.845,843.395,837.775,0.000,0.000,0
1508374119.661,845.657,823.518,844.560,841.887,0.000,0.000,0
1508374119.663,844.903,823.039,848.399,848.193,0.000,0.000,0
1508374119.665,842.915,821.668,847.645,851.072,0.000,0.000,0
1508374119.667,842.984,819.954,846.342,845.863,0.000,0.000,0
1508374119.669,836.541,817.350,846.411,830.098,0.000,0.000,0
1508374119.671,848.330,816.664,846.274,834.485,0.000,0.000,0
1508374119.673,859.571,812.209,847.165,836.541,0.000,0.000,0
1508374119.675,857.035,812.757,846.274,833.251,0.000,0.000,0
1508374119.677,854.979,815.773,844.423,836.473,0.000,0.000,0
1508374119.679,850.866,820.914,843.532,836.610,0.000,0.000,0
1508374119.681,844.286,821.942,845.588,839.351,0.000,0.000,0
1508374119.683,839.557,819.337,848.947,853.471,0.000,0.000,0
1508374119.685,836.267,821.051,851.963,853.539,0.000,0.000,0
1508374119.687,831.949,821.668,849.153,841.682,0.000,0.000,0
1508374119.689,842.573,820.023,849.632,839.968,0.000,0.000,0
1508374119.691,856.624,815.979,850.660,844.012,0.000,0.000,0
1508374119.693,861.216,815.773,847.508,844.834,0.000,0.000,0
1508374119.695,859.022,814.471,844.697,840.859,0.000,0.000,0
1508374119.697,848.673,812.346,845.588,842.573,0.000,0.000,0
1508374119.699,843.738,811.592,844.286,849.153,0.000,0.000,0
1508374119.701,842.436,813.169,846.205,847.576,0.000,0.000,0
1508374119.703,845.109,816.047,845.451,844.903,0.000,0.000,0
1508374119.705,847.713,822.559,845.794,843.121,0.000,0.000,0
1508374119.707,849.564,823.039,845.726,844.697,0.000,0.000,0
1508374119.709,848.399,820.091,847.302,840.791,0.000,0.000,0
1508374119.711,853.128,818.378,846.411,841.613,0.000,0.000,0
1508374119.713,860.051,816.870,844.903,843.532,0.000,0.000,0
1508374119.715,866.493,816.870,845.863,857.103,0.000,0.000,0
1508374119.717,857.377,816.870,848.330,849.632,0.000,0.000,0
1508374119.719,856.624,817.898,848.536,847.096,0.000,0.000,0
1508374119.721,846.274,821.188,849.427,842.778,0.000,0.000,0
1508374119.723,844.766,823.930,850.386,849.632,0.000,0.000,0
1508374119.725,842.641,821.599,848.467,844.149,0.000,0.000,0
1508374119.727,849.290,820.708,848.741,846.548,0.000,0.000,0
1508374119.729,857.994,820.365,848.604,850.386,0.000,0.000,0
1508374119.731,865.260,818.995,849.906,847.508,0.000,0.000,0
1508374119.733,866.699,815.842,850.386,858.063,0.000,0.000,0
1508374119.735,857.240,815.225,849.221,857.994,0.000,0.000,0
1508374119.737,854.773,814.882,847.233,853.608,0.000,0.000,0
1508374119.739,859.365,820.023,849.906,846.548,0.000,0.000,0
1508374119.741,858.063,821.462,848.399,842.641,0.000,0.000,0
1508374119.743,857.309,822.764,847.370,847.302,0.000,0.000,0
1508374119.745,858.543,822.559,847.233,841.887,0.000,0.000,0
1508374119.747,855.321,823.176,846.617,842.230,0.000,0.000,0
1508374119.749,864.094,822.696,845.383,852.374,0.000,0.000,0
1508374119.751,863.820,825.575,847.028,845.451,0.000,0.000,0
1508374119.753,859.982,825.232,846.822,846.342,0.000,0.000,0
1508374119.755,860.530,823.176,847.645,849.906,0.000,0.000,0
1508374119.757,862.312,821.051,847.165,850.729,0.000,0.000,0
1508374119.759,850.660,819.817,847.028,848.741,0.000,0.000,0
1508374119.761,844.697,818.378,850.112,851.140,0.000,0.000,0
1508374119.763,851.414,818.926,850.386,848.467,0.000,0.000,0
1508374119.765,855.047,815.088,850.044,856.349,0.000,0.000,0
1508374119.767,851.209,814.539,848.330,850.455,0.000,0.000,0
1508374119.769,854.156,815.705,846.068,848.262,0.000,0.000,0
1508374119.771,851.483,818.035,849.221,842.778,0.000,0.000,0
1508374119.773,857.857,819.543,851.346,852.168,0.000,0.000,0
1508374119.775,859.845,818.857,850.044,851.826,0.000,0.000,0
1508374119.777,860.188,819.269,846.617,850.660,0.000,0.000,0
1508374119.779,855.664,821.942,846.754,850.729,0.000,0.000,0
1508374119.781,845.657,823.313,848.947,852.443,0.000,0.000,0
1508374119.783,844.766,822.010,850.729,858.543,0.000,0.000,0
1508374119.785,845.588,820.297,852.922,856.144,0.000,0.000,0
1508374119.787,842.093,820.571,853.402,845.657,0.000,0.000,0
1508374119.789,847.096,820.640,851.140,842.984,0.000,0.000,0
1508374119.791,851.552,822.285,850.592,841.476,0.000,0.000,0
1508374119.793,848.673,820.571,850.592,839.420,0.000,0.000,0
1508374119.795,846.548,816.870,850.798,839.557,0.000,0.000,0
1508374119.797,850.386,817.350,851.689,848.536,0.000,0.000,0
1508374119.799,851.483,819.543,849.221,849.564,0.000,0.000,0
1508374119.801,850.729,822.627,850.386,851.552,0.000,0.000,0
1508374119.803,842.778,824.067,853.813,842.710,0.000,0.000,0
1508374119.805,840.654,824.341,856.898,843.601,0.000,0.000,0
1508374119.807,838.871,821.531,855.321,848.810,0.000,0.000,0
1508374119.809,845.314,821.736,852.717,850.523,0.000,0.000,0
1508374119.811,849.632,821.119,852.305,852.237,0.000,0.000,0
1508374119.813,852.580,817.555,850.798,859.022,0.000,0.000,0
1508374119.815,854.841,818.995,850.181,847.576,0.000,0.000,0
1508374119.817,857.446,814.677,852.237,858.268,0.000,0.000,0
1508374119.819,848.467,812.415,850.386,850.044,0.000,0.000,0
1508374119.821,836.198,814.814,847.713,834.690,0.000,0.000,0
1508374119.823,835.787,814.402,848.193,836.952,0.000,0.000,0
1508374119.825,834.416,815.088,850.249,844.903,0.000,0.000,0
1508374119.827,834.828,816.870,849.769,844.081,0.000,0.000,0
1508374119.829,845.726,816.596,847.645,844.972,0.000,0.000,0
1508374119.831,858.748,817.350,847.302,852.443,0.000,0.000,0
1508374119.833,860.736,818.583,848.673,852.031,0.000,0.000,0
1508374119.835,855.253,818.995,847.439,838.460,0.000,0.000,0
1508374119.837,850.592,819.954,849.838,836.061,0.000,0.000,0
1508374119.839,851.072,821.599,852.168,843.601,0.000,0.000,0
1508374119.841,841.270,822.010,851.140,845.520,0.000,0.000,0
1508374119.843,842.298,820.982,849.701,844.697,0.000,0.000,0
1508374119.845,846.891,820.571,849.838,845.246,0.000,0.000,0
1508374119.847,845.657,817.966,847.987,843.395,0.000,0.000,0
1508374119.849,850.181,820.228,848.604,844.834,0.000,0.000,0
1508374119.851,851.003,818.857,847.028,851.757,0.000,0.000,0
1508374119.853,851.003,816.321,848.124,851.826,0.000,0.000,0
1508374119.855,851.483,817.075,847.919,850.729,0.000,0.000,0
1508374119.857,851.346,822.353,848.124,845.588,0.000,0.000,0
1508374119.859,848.262,819.337,847.850,845.109,0.000,0.000,0
1508374119.861,844.629,815.362,849.290,844.629,0.000,0.000,0
1508374119.863,846.617,820.982,850.181,845.863,0.000,0.000,0
1508374119.865,855.184,822.422,851.072,849.701,0.000,0.000,0
1508374119.867,857.857,818.583,851.894,858.474,0.000,0.000,0
1508374119.869,847.302,815.910,849.906,850.866,0.000,0.000,0
1508374119.871,848.399,814.951,849.290,848.467,0.000,0.000,0
1508374119.873,861.696,814.471,850.798,863.683,0.000,0.000,0
1508374119.875,863.066,814.128,851.003,857.240,0.000,0.000,0
1508374119.877,849.427,817.487,849.153,843.875,0.000,0.000,0
1508374119.879,851.689,820.914,851.414,856.624,0.000,0.000,0
1508374119.881,843.875,822.559,849.564,851.620,0.000,0.000,0
1508374119.883,835.033,817.418,848.124,848.262,0.000,0.000,0
1508374119.885,834.416,818.446,847.782,840.722,0.000,0.000,0
1508374119.887,844.149,817.966,850.592,845.657,0.000,0.000,0
1508374119.889,850.386,818.995,852.443,848.741,0.000,0.000,0
1508374119.891,852.648,821.805,852.168,843.875,0.000,0.000,0
1508374119.893,856.829,820.160,847.782,843.258,0.000,0.000,0
1508374119.895,856.418,820.777,846.137,838.734,0.000,0.000,0
1508374119.897,856.898,820.571,848.536,848.604,0.000,0.000,0
1508374119.899,843.806,819.337,847.508,844.286,0.000,0.000,0
1508374119.901,842.847,823.244,849.084,837.364,0.000,0.000,0
1508374119.903,847.508,821.668,851.414,854.773,0.000,0.000,0
1508374119.905,839.762,821.668,850.318,851.072,0.000,0.000,0
1508374119.907,841.956,822.079,850.386,842.641,0.000,0.000,0
1508374119.909,844.286,822.147,849.358,840.996,0.000,0.000,0
1508374119.911,853.059,820.982,849.564,858.543,0.000,0.000,0
1508374119.913,856.486,819.611,849.769,850.044,0.000,0.000,0
1508374119.915,853.813,818.104,850.044,845.177,0.000,0.000,0
1508374119.917,852.443,815.705,847.713,847.850,0.000,0.000,0
1508374119.919,841.476,818.241,847.576,837.501,0.000,0.000,0
1508374119.921,836.404,822.285,849.975,840.859,0.000,0.000,0
1508374119.923,841.339,820.777,850.455,845.177,0.000,0.000,0
1508374119.925,833.936,819.886,850.592,841.202,0.000,0.000,0
1508374119.927,839.009,821.736,849.221,835.650,0.000,0.000,0
1508374119.929,854.841,822.490,848.467,839.214,0.000,0.000,0
1508374119.931,861.764,820.982,849.221,843.943,0.000,0.000,0
1508374119.933,855.527,819.749,848.056,839.900,0.000,0.000,0
1508374119.935,856.692,816.870,845.863,854.088,0.000,0.000,0
1508374119.937,850.935,820.503,843.532,847.782,0.000,0.000,0
1508374119.939,849.084,820.914,844.218,844.629,0.000,0.000,0
1508374119.941,842.778,818.789,846.342,842.847,0.000,0.000,0
1508374119.943,842.641,817.761,844.149,841.819,0.000,0.000,0
1508374119.945,849.906,820.982,844.972,846.000,0.000,0.000,0
1508374119.947,856.007,824.135,846.274,854.979,0.000,0.000,0
1508374119.949,844.218,823.655,846.685,850.729,0.000,0.000,0
1508374119.951,839.762,820.914,846.685,841.407,0.000,0.000,0
1508374119.953,847.576,820.228,845.246,833.799,0.000,0.000,0
1508374119.955,849.701,816.047,844.012,836.130,0.000,0.000,0
1508374119.957,841.407,814.128,843.943,834.828,0.000,0.000,0
1508374119.959,843.190,818.172,845.109,839.488,0.000,0.000,0
1508374119.961,846.822,822.079,845.040,842.573,0.000,0.000,0
1508374119.963,841.887,819.406,842.984,843.258,0.000,0.000,0
1508374119.965,840.242,817.692,841.613,843.258,0.000,0.000,0
1508374119.967,843.532,818.652,843.806,846.411,0.000,0.000,0
1508374119.969,840.654,817.898,843.395,845.040,0.000,0.000,0
1508374119.971,846.205,814.334,841.613,845.863,0.000,0.000,0
1508374119.973,849.975,810.084,842.024,844.423,0.000,0.000,0
1508374119.975,856.555,810.838,843.464,842.641,0.000,0.000,0
1508374119.977,851.072,812.415,842.093,839.488,0.000,0.000,0
1508374119.979,850.249,816.116,842.161,848.673,0.000,0.000,0
1508374119.981,843.052,818.857,845.726,848.741,0.000,0.000,0
1508374119.983,837.980,815.910,845.520,845.657,0.000,0.000,0
1508374119.985,830.304,816.047,846.137,837.089,0.000,0.000,0
1508374119.987,836.952,816.527,847.782,837.364,0.000,0.000,0
1508374119.989,845.314,816.596,845.931,840.859,0.000,0.000,0
1508374119.991,845.588,815.842,845.657,839.283,0.000,0.000,0
1508374119.993,851.072,816.459,846.068,837.021,0.000,0.000,0
1508374119.995,855.390,818.583,844.423,836.610,0.000,0.000,0
1508374119.997,854.841,816.390,842.573,837.912,0.000,0.000,0
1508374119.999,846.617,817.555,844.560,842.847,0.000,0.000,0
1508374120.001,841.202,817.007,848.467,848.467,0.000,0.000,0
1508374120.003,840.516,817.555,849.084,851.140,0.000,0.000,0
1508374120.005,840.791,820.160,847.233,840.311,0.000,0.000,0
1508374120.007,840.654,822.764,845.657,830.509,0.000,0.000,0
1508374120.009,844.286,821.805,847.508,831.332,0.000,0.000,0
1508374120.011,849.495,819.954,848.741,831.812,0.000,0.000,0
1508374120.013,854.910,818.720,846.754,832.703,0.000,0.000,0
1508374120.015,851.414,814.745,844.629,838.049,0.000,0.000,0
1508374120.017,845.931,813.100,841.750,835.856,0.000,0.000,0
1508374120.019,836.884,813.511,842.504,828.179,0.000,0.000,0
1508374120.021,837.364,815.910,844.286,832.566,0.000,0.000,0
1508374120.023,840.037,815.362,846.822,841.887,0.000,0.000,0
1508374120.025,846.822,816.253,848.673,845.314,0.000,0.000,0
1508374120.027,850.592,818.309,851.003,842.573,0.000,0.000,0
1508374120.029,849.769,821.051,851.003,840.105,0.000,0.000,0
1508374120.031,849.769,822.901,847.782,835.513,0.000,0.000,0
1508374120.033,856.418,822.970,846.342,838.049,0.000,0.000,0
1508374120.035,861.696,821.051,844.423,844.766,0.000,0.000,0
1508374120.037,857.583,819.406,846.959,847.987,0.000,0.000,0
1508374120.039,851.414,823.107,847.233,847.233,0.000,0.000,0
1508374120.041,842.573,825.369,848.193,836.952,0.000,0.000,0
1508374120.043,841.270,823.587,849.975,840.791,0.000,0.000,0
1508374120.045,845.246,818.583,850.386,847.919,0.000,0.000,0
1508374120.047,847.028,816.390,849.564,851.689,0.000,0.000,0
1508374120.049,842.230,815.499,849.975,844.149,0.000,0.000,0
1508374120.051,837.706,817.829,846.548,832.086,0.000,0.000,0
1508374120.053,837.021,816.664,844.834,832.292,0.000,0.000,0
1508374120.055,850.523,817.487,842.915,841.339,0.000,0.000,0
1508374120.057,852.785,817.555,842.710,838.871,0.000,0.000,0
1508374120.059,845.383,818.720,842.298,838.255,0.000,0.000,0
1508374120.061,842.504,820.845,842.847,841.202,0.000,0.000,0
1508374120.063,842.573,820.228,843.875,840.859,0.000,0.000,0
1508374120.065,835.513,817.350,845.520,834.074,0.000,0.000,0
1508374120.067,842.710,817.144,846.479,838.803,0.000,0.000,0
1508374120.069,847.370,817.075,844.560,839.968,0.000,0.000,0
1508374120.071,850.044,819.063,844.697,843.464,0.000,0.000,0
1508374120.073,847.782,818.309,844.423,839.077,0.000,0.000,0
1508374120.075,853.676,814.951,845.931,837.226,0.000,0.000,0
1508374120.077,849.564,810.633,845.657,835.856,0.000,0.000,0
1508374120.079,830.441,808.439,845.520,831.058,0.000,0.000,0
1508374120.081,834.896,808.576,846.342,839.214,0.000,0.000,0
1508374120.083,842.367,810.633,847.782,841.339,0.000,0.000,0
1508374120.085,842.436,813.511,849.564,841.270,0.000,0.000,0
1508374120.087,847.987,817.144,849.769,845.383,0.000,0.000,0
1508374120.089,852.580,818.446,848.604,844.903,0.000,0.000,0
1508374120.091,856.007,819.406,848.193,844.012,0.000,0.000,0
1508374120.093,856.898,820.228,846.822,847.850,0.000,0.000,0
1508374120.095,854.225,819.269,845.109,839.214,0.000,0.000,0
1508374120.097,857.035,821.462,846.959,844.286,0.000,0.000,0
1508374120.099,849.358,820.228,848.878,846.274,0.000,0.000,0
1508374120.101,845.726,819.749,851.689,850.112,0.000,0.000,0
1508374120.103,836.610,820.845,849.084,838.803,0.000,0.000,0
1508374120.105,839.420,820.914,849.290,841.270,0.000,0.000,0
1508374120.107,843.258,819.611,848.536,841.133,0.000,0.000,0
1508374120.109,847.919,819.132,846.959,833.457,0.000,0.000,0
1508374120.111,845.451,817.624,846.068,830.647,0.000,0.000,0
1508374120.113,848.947,816.459,847.233,840.859,0.000,0.000,0
1508374120.115,850.729,816.527,848.262,844.218,0.000,0.000,0
1508374120.117,855.184,815.705,846.548,853.882,0.000,0.000,0
1508374120.119,846.685,817.966,846.137,847.508,0.000,0.000,0
1508374120.121,835.307,820.845,849.564,837.089,0.000,0.000,0
1508374120.123,827.973,819.954,850.044,835.513,0.000,0.000,0
1508374120.125,833.457,818.446,848.467,833.662,0.000,0.000,0
1508374120.127,839.351,820.708,848.878,835.581,0.000,0.000,0
1508374120.129,842.436,822.627,850.660,839.557,0.000,0.000,0
1508374120.131,846.068,817.692,849.838,854.225,0.000,0.000,0
1508374120.133,844.697,815.568,849.769,848.604,0.000,0.000,0
1508374120.135,838.460,816.664,850.318,835.856,0.000,0.000,0
1508374120.137,841.545,816.938,851.003,833.251,0.000,0.000,0
1508374120.139,841.682,818.926,849.906,839.694,0.000,0.000,0
1508374120.141,837.158,818.652,848.741,837.364,0.000,0.000,0
1508374120.143,837.775,819.200,845.726,835.581,0.000,0.000,0
1508374120.145,838.734,817.350,845.246,834.690,0.000,0.000,0
1508374120.147,843.327,819.337,846.754,840.585,0.000,0.000,0
1508374120.149,853.745,819.543,848.878,862.175,0.000,0.000,0
1508374120.151,849.358,817.075,850.249,850.455,0.000,0.000,0
1508374120.153,846.479,815.636,849.016,834.279,0.000,0.000,0
1508374120.155,850.112,820.845,844.834,832.566,0.000,0.000,0
1508374120.157,847.919,821.531,843.669,835.239,0.000,0.000,0
1508374120.159,836.952,819.611,843.875,835.102,0.000,0.000,0
1508374120.161,827.562,819.680,844.903,834.828,0.000,0.000,0
1508374120.163,828.042,819.611,846.685,840.037,0.000,0.000,0
1508374120.165,835.581,815.019,845.177,850.866,0.000,0.000,0
1508374120.167,838.255,815.910,845.794,846.822,0.000,0.000,0
1508374120.169,837.775,817.761,847.508,842.367,0.000,0.000,0
1508374120.171,840.311,820.434,844.766,837.843,0.000,0.000,0
1508374120.173,844.834,818.995,844.697,839.557,0.000,0.000,0
1508374120.175,851.003,818.995,844.286,837.226,0.000,0.000,0
1508374120.177,847.233,817.418,845.383,832.429,0.000,0.000,0
1508374120.179,838.529,817.281,844.629,836.061,0.000,0.000,0
1508374120.181,844.697,818.926,847.370,849.975,0.000,0.000,0
1508374120.183,844.492,818.720,847.850,842.298,0.000,0.000,0
1508374120.185,839.968,817.966,847.233,837.775,0.000,0.000,0
1508374120.187,828.796,819.680,845.726,828.590,0.000,0.000,0
1508374120.189,835.033,818.104,845.520,834.485,0.000,0.000,0
1508374120.191,844.492,818.789,845.588,835.719,0.000,0.000,0
1508374120.193,852.511,819.680,845.588,838.871,0.000,0.000,0
1508374120.195,851.757,818.172,844.081,837.569,0.000,0.000,0
1508374120.197,846.685,817.692,843.943,835.719,0.000,0.000,0
1508374120.199,851.003,816.870,844.149,850.455,0.000,0.000,0
1508374120.201,845.794,818.995,847.439,844.081,0.000,0.000,0
1508374120.203,844.012,821.462,847.508,840.311,0.000,0.000,0
1508374120.205,843.738,823.381,848.741,842.298,0.000,0.000,0
1508374120.207,844.218,818.652,850.798,843.532,0.000,0.000,0
1508374120.209,836.335,815.979,849.769,841.202,0.000,0.000,0
1508374120.211,840.311,818.857,844.218,837.089,0.000,0.000,0
1508374120.213,850.866,817.350,843.943,849.084,0.000,0.000,0
1508374120.215,850.798,814.677,847.508,849.221,0.000,0.000,0
1508374120.217,839.968,814.402,847.508,843.669,0.000,0.000,1
1508374120.219,833.936,815.156,851.689,851.003,0.000,0.000,0
1508374120.221,834.965,818.583,851.620,850.112,0.000,0.000,0
1508374120.223,836.198,818.104,850.112,844.218,0.000,0.000,0
1508374120.225,836.747,818.035,849.016,843.943,0.000,0.000,0
1508374120.227,842.161,820.091,847.165,846.205,0.000,0.000,0
1508374120.229,854.019,820.708,847.713,848.124,0.000,0.000,0
1508374120.231,857.446,816.459,847.645,849.769,0.000,0.000,0
1508374120.233,862.998,813.785,844.834,859.160,0.000,0.000,0
1508374120.235,860.393,812.278,845.726,856.761,0.000,0.000,0
1508374120.237,855.870,812.620,846.479,846.205,0.000,0.000,0
1508374120.239,849.701,816.664,847.919,844.355,0.000,0.000,0
1508374120.241,846.685,820.708,847.096,847.987,0.000,0.000,0
1508374120.243,842.436,820.777,847.782,850.044,0.000,0.000,0
1508374120.245,843.738,819.817,848.330,849.906,0.000,0.000,0
1508374120.247,848.741,819.063,848.330,855.116,0.000,0.000,0
1508374120.249,850.318,819.543,847.919,851.072,0.000,0.000,0
1508374120.251,851.072,820.571,848.467,846.000,0.000,0.000,0
1508374120.253,857.103,822.079,848.124,839.420,0.000,0.000,0
1508374120.255,861.010,821.188,847.439,844.355,0.000,0.000,0
1508374120.257,853.539,818.378,845.520,843.601,0.000,0.000,0
1508374120.259,849.427,822.422,848.330,846.411,0.000,0.000,0
1508374120.261,847.987,822.696,850.592,850.249,0.000,0.000,0
1508374120.263,842.778,821.256,847.645,844.218,0.000,0.000,0
1508374120.265,839.214,820.228,847.850,840.791,0.000,0.000,0
1508374120.267,847.919,818.172,849.084,853.950,0.000,0.000,0
1508374120.269,852.168,821.119,847.096,850.318,0.000,0.000,0
1508374120.271,847.233,820.365,846.205,840.654,0.000,0.000,0
1508374120.273,847.302,814.745,847.096,841.202,0.000,0.000,0
1508374120.275,841.956,813.032,845.657,842.847,0.000,0.000,0
1508374120.277,841.133,814.814,845.246,846.822,0.000,0.000,0
1508374120.279,842.230,812.483,844.355,846.959,0.000,0.000,0
1508374120.281,836.473,812.003,842.436,840.379,0.000,0.000,0
1508374120.283,838.940,812.209,843.806,835.993,0.000,0.000,0
1508374120.285,837.775,812.963,844.355,833.320,0.000,0.000,0
1508374120.287,846.754,818.995,849.016,842.161,0.000,0.000,0
1508374120.289,861.901,820.228,851.894,857.103,0.000,0.000,0
1508374120.291,862.518,817.624,850.318,848.467,0.000,0.000,0
1508374120.293,854.910,818.035,848.810,834.965,0.000,0.000,0
1508374120.295,856.555,820.228,850.386,841.407,0.000,0.000,0
1508374120.297,857.377,822.901,851.414,851.894,0.000,0.000,0
1508374120.299,851.140,823.998,854.293,860.530,0.000,0.000,0
1508374120.301,854.636,824.889,854.362,875.335,0.000,0.000,0
1508374120.303,848.810,825.917,854.019,863.272,0.000,0.000,0
1508374120.305,846.959,825.780,856.281,852.785,0.000,0.000,0
1508374120.307,851.620,827.082,855.664,848.604,0.000,0.000,0
1508374120.309,850.044,824.683,853.676,850.592,0.000,0.000,0
1508374120.311,854.156,821.668,853.128,858.268,0.000,0.000,0
1508374120.313,857.377,817.898,850.866,850.523,0.000,0.000,0
1508374120.315,864.369,817.692,848.673,853.950,0.000,0.000,0
1508374120.317,853.882,820.640,849.358,840.174,0.000,0.000,0
1508374120.319,848.810,825.780,848.330,837.089,0.000,0.000,0
1508374120.321,847.645,827.288,848.193,841.476,0.000,0.000,0
1508374120.323,845.520,820.708,849.153,844.629,0.000,0.000,0
1508374120.325,848.673,816.321,852.100,844.560,0.000,0.000,0
1508374120.327,849.016,814.608,851.346,845.520,0.000,0.000,0
1508374120.329,844.355,815.293,850.249,845.040,0.000,0.000,0
1508374120.331,845.863,816.527,848.673,844.766,0.000,0.000,0
1508374120.333,857.446,818.446,847.645,844.834,0.000,0.000,0
1508374120.335,870.606,817.350,849.975,857.789,0.000,0.000,0
1508374120.337,864.917,820.571,850.455,855.390,0.000,0.000,0
1508374120.339,856.281,824.341,850.455,851.757,0.000,0.000,0
1508374120.341,849.084,822.901,851.620,850.044,0.000,0.000,0
1508374120.343,843.601,817.829,850.660,847.165,0.000,0.000,0
1508374120.345,845.657,815.362,848.262,847.439,0.000,0.000,0
1508374120.347,850.249,816.938,844.834,849.906,0.000,0.000,0
1508374120.349,858.611,818.172,847.233,847.782,0.000,0.000,0
1508374120.351,855.664,818.926,845.383,840.722,0.000,0.000,0
1508374120.353,861.421,821.805,844.012,831.469,0.000,0.000,0
1508374120.355,876.706,820.571,845.657,839.146,0.000,0.000,0
1508374120.357,870.949,818.652,845.520,842.915,0.000,0.000,0
1508374120.359,862.998,820.297,848.536,848.330,0.000,0.000,0
1508374120.361,857.994,824.341,851.277,849.701,0.000,0.000,0
1508374120.363,854.430,824.341,850.935,846.959,0.000,0.000,0
1508374120.365,856.486,819.749,851.620,859.022,0.000,0.000,0
1508374120.367,850.935,817.692,848.536,852.168,0.000,0.000,0
1508374120.369,847.987,815.842,847.370,841.682,0.000,0.000,0
1508374120.371,849.975,817.007,848.604,837.295,0.000,0.000,0
1508374120.373,858.543,816.733,846.685,837.912,0.000,0.000,0
1508374120.375,865.739,815.293,848.467,843.258,0.000,0.000,0
1508374120.377,866.630,817.418,848.741,847.987,0.000,0.000,0
1508374120.379,861.627,817.281,847.987,851.209,0.000,0.000,0
1508374120.381,860.530,814.882,849.906,860.051,0.000,0.000,0
1508374120.383,848.056,812.552,847.302,854.088,0.000,0.000,0
1508374120.385,836.815,812.072,846.617,847.850,0.000,0.000,0
1508374120.387,833.114,817.144,848.810,839.420,0.000,0.000,0
1508374120.389,844.012,817.487,848.330,850.112,0.000,0.000,0
1508374120.391,856.966,819.543,846.685,858.406,0.000,0.000,0
1508374120.393,864.643,820.023,845.794,857.926,0.000,0.000,0
1508374120.395,865.054,817.898,845.863,852.100,0.000,0.000,0
1508374120.397,863.820,818.926,846.342,855.527,0.000,0.000,0
1508374120.399,854.088,818.035,847.233,863.272,0.000,0.000,0
1508374120.401,848.330,821.942,846.822,847.096,0.000,0.000,0
1508374120.403,846.342,821.119,845.109,838.871,0.000,0.000,0
1508374120.405,838.460,817.418,845.520,835.924,0.000,0.000,0
1508374120.407,839.488,814.265,846.959,836.473,0.000,0.000,0
1508374120.409,843.258,813.991,845.794,836.061,0.000,0.000,0
1508374120.411,844.081,814.060,846.137,837.501,0.000,0.000,0
1508374120.413,855.116,813.443,844.560,848.536,0.000,0.000,0
1508374120.415,859.708,814.745,843.052,841.339,0.000,0.000,0
1508374120.417,850.455,815.088,838.186,832.703,0.000,0.000,0
1508374120.419,842.298,819.200,839.077,825.095,0.000,0.000,0
1508374120.421,852.237,824.546,839.214,837.501,0.000,0.000,0
1508374120.423,860.462,821.942,844.972,850.523,0.000,0.000,0
1508374120.425,857.857,820.023,847.782,851.963,0.000,0.000,0
1508374120.427,852.854,821.325,848.124,847.165,0.000,0.000,0
1508374120.429,852.922,820.297,848.878,842.573,0.000,0.000,0
1508374120.431,856.692,820.365,845.863,839.283,0.000,0.000,0
1508374120.433,862.792,818.720,846.000,844.629,0.000,0.000,0
1508374120.435,868.207,818.652,845.520,852.580,0.000,0.000,0
1508374120.437,862.381,819.269,846.617,852.922,0.000,0.000,0
1508374120.439,853.196,822.147,849.632,847.302,0.000,0.000,0
1508374120.441,849.769,822.559,850.318,844.012,0.000,0.000,0
1508374120.443,847.576,821.736,847.370,844.972,0.000,0.000,0
1508374120.445,844.492,821.256,846.617,838.392,0.000,0.000,0
1508374120.447,850.249,821.325,845.794,840.996,0.000,0.000,0
1508374120.449,859.297,821.599,846.479,839.968,0.000,0.000,0
1508374120.451,859.571,816.938,845.314,833.662,0.000,0.000,0
1508374120.453,860.325,816.664,845.520,829.550,0.000,0.000,0
1508374120.455,867.727,817.555,848.878,844.012,0.000,0.000,0
1508374120.457,860.188,816.527,845.657,844.629,0.000,0.000,0
1508374120.459,856.007,816.870,844.012,846.822,0.000,0.000,0
1508374120.461,859.708,817.555,845.657,844.560,0.000,0.000,0
1508374120.463,859.228,817.761,846.959,841.545,0.000,0.000,0
1508374120.465,857.583,820.091,849.632,852.580,0.000,0.000,0
1508374120.467,848.193,817.898,847.782,848.330,0.000,0.000,0
1508374120.469,850.523,814.539,844.355,844.560,0.000,0.000,0
1508374120.471,854.088,816.733,845.177,843.738,0.000,0.000,0
1508374120.473,863.546,817.692,844.423,853.059,0.000,0.000,0
1508374120.475,864.780,817.350,845.246,855.458,0.000,0.000,0
1508374120.477,857.652,817.692,845.588,855.321,0.000,0.000,0
1508374120.479,856.966,818.995,844.286,851.894,0.000,0.000,0
1508374120.481,854.773,816.116,844.629,854.293,0.000,0.000,0
1508374120.483,842.230,810.838,841.133,844.286,0.000,0.000,0
1508374120.485,836.198,811.318,838.734,832.634,0.000,0.000,0
1508374120.487,843.327,816.321,840.037,830.989,0.000,0.000,0
1508374120.489,853.471,820.091,842.847,840.859,0.000,0.000,0
1508374120.491,860.736,820.228,842.298,840.722,0.000,0.000,0
1508374120.493,861.421,818.172,843.875,844.012,0.000,0.000,0
1508374120.495,860.393,817.350,845.040,845.246,0.000,0.000,0
1508374120.497,857.515,817.966,845.040,844.149,0.000,0.000,0
1508374120.499,855.732,820.914,844.012,855.390,0.000,0.000,0
1508374120.501,851.277,821.051,845.040,855.458,0.000,0.000,0
1508374120.503,848.399,819.406,845.726,854.704,0.000,0.000,0
1508374120.505,851.689,821.805,845.314,849.906,0.000,0.000,0
1508374120.507,852.854,822.970,843.190,847.782,0.000,0.000,0
1508374120.509,854.156,818.720,842.504,841.819,0.000,0.000,0
1508374120.511,852.374,816.527,844.218,836.884,0.000,0.000,0
1508374120.513,853.813,812.689,844.492,845.863,0.000,0.000,0
1508374120.515,849.906,812.552,844.423,841.750,0.000,0.000,0
1508374120.517,848.878,813.032,845.109,839.900,0.000,0.000,0
1508374120.519,845.451,818.035,846.617,834.416,0.000,0.000,0
1508374120.521,844.423,824.204,845.863,833.594,0.000,0.000,0
1508374120.523,840.791,820.777,846.205,835.856,0.000,0.000,0
1508374120.525,843.943,822.559,846.137,838.529,0.000,0.000,0
1508374120.527,844.972,825.986,846.548,843.258,0.000,0.000,0
1508374120.529,847.302,824.821,845.383,842.298,0.000,0.000,0
1508374120.531,854.225,823.587,844.697,842.778,0.000,0.000,0
1508374120.533,865.671,820.982,842.504,856.692,0.000,0.000,0
1508374120.535,864.437,818.309,841.339,849.701,0.000,0.000,0
1508374120.537,854.704,817.966,840.928,839.625,0.000,0.000,0
1508374120.539,846.685,819.474,843.943,840.791,0.000,0.000,0
1508374120.541,842.778,822.764,845.657,841.545,0.000,0.000,0
1508374120.543,847.850,824.409,844.972,842.436,0.000,0.000,0
1508374120.545,847.508,818.995,843.395,843.669,0.000,0.000,0
1508374120.547,846.342,816.527,841.819,848.878,0.000,0.000,0
1508374120.549,850.523,813.237,844.903,846.959,0.000,0.000,0
1508374120.551,851.003,816.664,844.560,841.133,0.000,0.000,0
1508374120.553,854.019,820.091,844.286,839.625,0.000,0.000,0
1508374120.555,858.268,816.733,846.548,848.467,0.000,0.000,0
1508374120.557,854.293,812.415,846.068,848.947,0.000,0.000,0
1508374120.559,848.604,813.100,845.931,846.137,0.000,0.000,0
1508374120.561,845.383,817.487,847.165,845.246,0.000,0.000,0
1508374120.563,850.386,822.970,847.302,846.617,0.000,0.000,0
1508374120.565,852.854,822.422,849.495,860.188,0.000,0.000,0
1508374120.567,847.370,819.954,847.370,853.471,0.000,0.000,0
1508374120.569,850.112,817.555,847.165,847.165,0.000,0.000,0
1508374120.571,853.608,818.857,848.810,841.682,0.000,0.000,0
1508374120.573,857.926,818.720,847.987,846.000,0.000,0.000,0
1508374120.575,858.543,817.761,846.548,846.000,0.000,0.000,0
1508374120.577,859.776,815.568,846.205,848.673,0.000,0.000,0
1508374120.579,854.499,815.910,848.056,852.511,0.000,0.000,0
1508374120.581,851.277,817.898,847.576,858.474,0.000,0.000,0
1508374120.583,846.891,821.119,843.943,848.673,0.000,0.000,0
1508374120.585,848.399,824.478,843.738,839.146,0.000,0.000,0
1508374120.587,857.857,823.792,846.411,835.856,0.000,0.000,0
1508374120.589,860.599,822.147,848.056,844.629,0.000,0.000,0
1508374120.591,856.966,821.325,847.645,846.754,0.000,0.000,0
1508374120.593,863.409,818.789,846.274,845.109,0.000,0.000,0
1508374120.595,861.901,817.761,843.532,840.722,0.000,0.000,0
1508374120.597,855.458,818.995,844.972,841.202,0.000,0.000,0
1508374120.599,859.160,820.571,848.673,854.567,0.000,0.000,0
1508374120.601,857.103,821.668,849.632,854.088,0.000,0.000,0
1508374120.603,850.866,820.777,849.153,847.713,0.000,0.000,0
1508374120.605,846.137,822.216,848.467,841.407,0.000,0.000,0
1508374120.607,843.738,821.736,847.645,836.678,0.000,0.000,0
1508374120.609,842.367,820.365,846.754,842.298,0.000,0.000,0
1508374120.611,849.290,817.692,846.137,847.919,0.000,0.000,0
1508374120.613,860.462,816.184,845.109,855.870,0.000,0.000,0
1508374120.615,869.715,819.954,845.383,850.592,0.000,0.000,0
1508374120.617,862.587,818.926,846.617,845.314,0.000,0.000,0
1508374120.619,845.520,821.531,849.153,839.351,0.000,0.000,0
1508374120.621,848.056,826.123,851.003,847.439,0.000,0.000,0
1508374120.623,852.991,826.466,852.237,851.277,0.000,0.000,0
1508374120.625,852.100,824.204,852.374,846.137,0.000,0.000,0
1508374120.627,851.003,824.067,850.386,844.629,0.000,0.000,0
1508374120.629,852.922,828.042,849.838,842.573,0.000,0.000,0
1508374120.631,857.309,827.905,851.209,845.246,0.000,0.000,0
1508374120.633,868.344,822.422,851.277,854.293,0.000,0.000,0
1508374120.635,865.123,820.571,848.947,843.806,0.000,0.000,0
1508374120.637,850.249,821.393,849.153,833.525,0.000,0.000,0
1508374120.639,847.645,819.543,851.894,838.529,0.000,0.000,0
1508374120.641,848.262,822.147,851.072,841.270,0.000,0.000,0
1508374120.643,845.588,821.051,852.717,843.258,0.000,0.000,0
1508374120.645,851.346,819.817,853.608,846.548,0.000,0.000,0
1508374120.647,857.240,819.680,851.963,853.608,0.000,0.000,0
1508374120.649,858.680,819.886,853.402,849.906,0.000,0.000,0
1508374120.651,850.523,819.337,849.906,842.778,0.000,0.000,0
1508374120.653,850.455,820.640,849.358,838.117,0.000,0.000,0
1508374120.655,863.889,820.160,848.810,849.564,0.000,0.000,0
1508374120.657,856.761,819.817,847.919,850.181,0.000,0.000,0
1508374120.659,846.411,824.341,848.536,847.645,0.000,0.000,0
1508374120.661,839.831,823.792,849.975,839.831,0.000,0.000,0
1508374120.663,838.666,820.571,849.906,835.581,0.000,0.000,0
1508374120.665,846.891,820.640,849.906,844.218,0.000,0.000,0
1508374120.667,845.040,822.764,849.564,839.831,0.000,0.000,0
1508374120.669,847.782,824.341,849.906,845.794,0.000,0.000,0
1508374120.671,848.673,821.873,850.935,844.766,0.000,0.000,0
1508374120.673,856.761,822.627,850.866,844.629,0.000,0.000,0
1508374120.675,857.103,822.490,850.660,842.778,0.000,0.000,0
1508374120.677,852.854,820.091,847.987,842.641,0.000,0.000,0
1508374120.679,842.915,820.160,845.177,846.000,0.000,0.000,0
1508374120.681,842.161,819.886,845.246,856.555,0.000,0.000,0
1508374120.683,849.769,820.914,848.604,855.664,0.000,0.000,0
1508374120.685,851.003,818.857,850.318,849.769,0.000,0.000,0
1508374120.687,851.414,820.365,851.209,843.943,0.000,0.000,0
1508374120.689,854.362,821.736,851.620,847.165,0.000,0.000,0
1508374120.691,857.926,823.724,851.209,846.959,0.000,0.000,0
1508374120.693,857.994,821.599,852.443,844.766,0.000,0.000,0
1508374120.695,853.539,818.378,850.935,845.520,0.000,0.000,0
1508374120.697,855.184,818.789,849.016,853.471,0.000,0.000,0
1508374120.699,849.084,821.188,848.604,853.128,0.000,0.000,0
1508374120.701,844.081,820.982,852.374,850.866,0.000,0.000,0
1508374120.703,845.109,820.982,851.826,840.722,0.000,0.000,0
1508374120.705,852.237,823.039,851.963,840.928,0.000,0.000,0
1508374120.707,848.947,821.668,848.399,843.669,0.000,0.000,0
1508374120.709,850.798,821.668,847.645,846.754,0.000,0.000,0
1508374120.711,852.168,821.805,848.741,846.959,0.000,0.000,0
1508374120.713,851.826,818.446,849.358,860.051,0.000,0.000,0
1508374120.715,853.334,815.019,849.495,859.571,0.000,0.000,0
1508374120.717,856.761,817.692,851.277,858.474,0.000,0.000,0
1508374120.719,851.894,818.926,852.717,854.979,0.000,0.000,0
1508374120.721,856.349,818.720,856.144,866.493,0.000,0.000,0
1508374120.723,861.147,823.381,853.128,868.755,0.000,0.000,0
1508374120.725,852.305,824.546,849.153,852.648,0.000,0.000,0
1508374120.727,850.935,824.272,846.274,838.392,0.000,0.000,0
1508374120.729,848.741,822.901,845.794,836.404,0.000,0.000,0
1508374120.731,851.894,819.132,848.262,842.298,0.000,0.000,0
1508374120.733,863.272,817.898,847.302,845.109,0.000,0.000,0
1508374120.735,859.913,818.378,844.286,843.943,0.000,0.000,0
1508374120.737,853.402,816.047,844.423,837.569,0.000,0.000,0
1508374120.739,850.592,816.938,843.464,837.980,0.000,0.000,0
1508374120.741,840.037,817.898,840.654,828.659,0.000,0.000,0
1508374120.743,838.803,817.829,841.750,830.989,0.000,0.000,0
1508374120.745,840.859,816.116,842.298,845.246,0.000,0.000,0
1508374120.747,835.102,817.075,844.629,837.843,0.000,0.000,0
1508374120.749,833.388,816.390,845.931,834.759,0.000,0.000,0
1508374120.751,844.492,816.801,846.685,843.464,0.000,0.000,0
1508374120.753,851.620,819.337,847.508,840.448,0.000,0.000,0
1508374120.755,857.446,818.926,846.617,834.485,0.000,0.000,0
1508374120.757,858.337,821.325,846.274,835.170,0.000,0.000,0
1508374120.759,850.455,822.901,848.741,840.654,0.000,0.000,0
1508374120.761,845.588,822.970,848.810,850.112,0.000,0.000,0
1508374120.763,840.448,820.365,849.906,845.383,0.000,0.000,0
1508374120.765,845.177,818.446,850.181,838.871,0.000,0.000,0
1508374120.767,861.558,818.104,848.399,853.059,0.000,0.000,0
1508374120.769,860.051,821.599,846.959,845.588,0.000,0.000,0
1508374120.771,849.975,820.503,845.177,832.771,0.000,0.000,0
1508374120.773,852.100,817.966,845.451,840.311,0.000,0.000,0
1508374120.775,856.075,816.253,848.741,847.782,0.000,0.000,0
1508374120.777,853.334,818.583,845.520,843.943,0.000,0.000,0
1508374120.779,849.427,819.954,844.834,849.084,0.000,0.000,0
1508374120.781,847.576,818.035,847.165,850.798,0.000,0.000,0
1508374120.783,847.302,813.580,849.153,847.987,0.000,0.000,0
1508374120.785,846.617,814.814,849.016,853.128,0.000,0.000,0
1508374120.787,846.137,815.773,851.003,856.144,0.000,0.000,0
1508374120.789,845.588,814.334,850.112,851.414,0.000,0.000,0
1508374120.791,845.588,815.979,849.084,844.423,0.000,0.000,0
1508374120.793,848.536,816.938,848.604,840.379,0.000,0.000,0
1508374120.795,852.717,818.926,848.056,847.302,0.000,0.000,0
1508374120.797,849.016,819.886,848.124,852.305,0.000,0.000,0
1508374120.799,840.105,818.995,846.068,845.246,0.000,0.000,0
1508374120.801,829.687,819.886,846.617,835.856,0.000,0.000,0
1508374120.803,827.288,821.393,848.467,851.277,0.000,0.000,0
1508374120.805,826.671,822.010,851.689,845.383,0.000,0.000,0
1508374120.807,831.606,823.381,854.636,841.270,0.000,0.000,0
1508374120.809,841.682,823.861,854.979,843.601,0.000,0.000,0
1508374120.811,846.617,823.039,852.580,842.367,0.000,0.000,0
1508374120.813,856.075,821.188,854.841,852.991,0.000,0.000,0
1508374120.815,858.200,818.446,853.882,848.262,0.000,0.000,0
1508374120.817,851.072,817.761,853.745,846.000,0.000,0.000,0
1508374120.819,838.803,820.708,854.979,843.121,0.000,0.000,0
1508374120.821,843.669,821.256,856.075,856.761,0.000,0.000,0
1508374120.823,846.891,819.954,856.144,857.240,0.000,0.000,0
1508374120.825,851.689,820.297,852.922,851.894,0.000,0.000,0
1508374120.827,849.495,819.954,852.100,843.875,0.000,0.000,0
1508374120.829,848.467,818.720,852.717,840.722,0.000,0.000,0
1508374120.831,856.966,821.393,851.963,862.861,0.000,0.000,0
1508374120.833,862.792,821.736,851.689,858.337,0.000,0.000,0
1508374120.835,860.873,820.228,848.262,843.738,0.000,0.000,0
1508374120.837,856.966,819.543,847.370,843.875,0.000,0.000,0
1508374120.839,854.019,818.652,848.193,847.782,0.000,0.000,0
1508374120.841,846.274,821.736,851.620,846.617,0.000,0.000,0
1508374120.843,843.806,825.232,852.991,844.355,0.000,0.000,0
1508374120.845,850.249,823.587,853.471,845.383,0.000,0.000,0
1508374120.847,851.963,824.135,851.209,846.342,0.000,0.000,0
1508374120.849,847.576,818.857,844.834,841.407,0.000,0.000,0
1508374120.851,850.181,816.459,845.109,836.678,0.000,0.000,0
1508374120.853,852.511,814.677,846.137,829.755,0.000,0.000,0
1508374120.855,857.377,814.265,845.451,836.747,0.000,0.000,0
1508374120.857,856.007,816.527,843.395,833.594,0.000,0.000,0
1508374120.859,850.660,817.350,845.109,832.154,0.000,0.000,1
1508374120.861,840.242,816.870,847.987,835.376,0.000,0.000,0
1508374120.863,840.174,815.362,849.701,850.455,0.000,0.000,0
1508374120.865,843.395,816.527,849.427,847.987,0.000,0.000,0
1508374120.867,838.049,813.169,848.399,835.102,0.000,0.000,0
1508374120.869,835.444,815.568,847.370,822.559,0.000,0.000,0
1508374120.871,844.218,818.995,848.262,829.961,0.000,0.000,0
1508374120.873,848.741,817.144,847.370,835.787,0.000,0.000,0
1508374120.875,852.031,818.857,847.028,834.690,0.000,0.000,0
1508374120.877,849.016,817.966,847.302,831.058,0.000,0.000,0
1508374120.879,845.588,816.664,851.140,837.638,0.000,0.000,0
1508374120.881,851.826,819.337,851.894,851.757,0.000,0.000,0
1508374120.883,844.286,816.527,853.539,850.660,0.000,0.000,0
1508374120.885,840.859,819.749,851.620,844.286,0.000,0.000,0
1508374120.887,841.133,823.107,850.386,843.532,0.000,0.000,0
1508374120.889,847.370,825.575,849.084,846.068,0.000,0.000,0
1508374120.891,849.495,827.425,850.249,840.311,0.000,0.000,0
1508374120.893,855.870,823.655,849.564,835.581,0.000,0.000,0
1508374120.895,860.119,821.462,845.794,835.650,0.000,0.000,0
1508374120.897,860.393,821.462,849.221,845.520,0.000,0.000,0
1508374120.899,849.084,821.462,847.919,843.121,0.000,0.000,0
1508374120.901,845.383,820.914,847.576,843.601,0.000,0.000,0
1508374120.903,842.915,820.365,848.810,840.174,0.000,0.000,0
1508374120.905,839.283,818.652,848.399,842.641,0.000,0.000,0
1508374120.907,845.931,817.761,848.262,843.464,0.000,0.000,0
1508374120.909,852.785,819.680,847.165,840.448,0.000,0.000,0
1508374120.911,859.913,821.873,849.153,847.919,0.000,0.000,0
1508374120.913,863.820,819.132,847.919,844.697,0.000,0.000,0
1508374120.915,864.094,820.160,849.975,843.395,0.000,0.000,0
1508374120.917,856.761,821.736,847.302,857.172,0.000,0.000,0
1508374120.919,843.532,820.982,846.685,845.451,0.000,0.000,0
1508374120.921,839.968,820.091,850.866,846.342,0.000,0.000,0
1508374120.923,846.342,820.640,851.209,852.443,0.000,0.000,0
1508374120.925,845.863,821.599,851.689,843.943,0.000,0.000,0
1508374120.927,850.181,823.724,848.124,841.750,0.000,0.000,0
1508374120.929,856.486,822.422,848.399,855.184,0.000,0.000,0
1508374120.931,854.979,817.555,848.741,849.769,0.000,0.000,0
1508374120.933,851.003,816.047,843.738,840.379,0.000,0.000,0
1508374120.935,848.741,819.269,840.174,831.880,0.000,0.000,0
1508374120.937,855.938,822.285,845.863,843.601,0.000,0.000,0
1508374120.939,855.938,821.668,846.754,845.794,0.000,0.000,0
1508374120.941,847.576,821.393,848.124,843.395,0.000,0.000,0
1508374120.943,842.641,821.256,846.205,840.791,0.000,0.000,0
1508374120.945,843.121,819.954,843.943,839.625,0.000,0.000,0
1508374120.947,843.395,817.966,844.149,839.146,0.000,0.000,0
1508374120.949,851.826,816.116,845.314,854.910,0.000,0.000,0
1508374120.951,844.012,815.979,845.177,847.782,0.000,0.000,0
1508374120.953,841.065,816.801,843.738,839.625,0.000,0.000,0
1508374120.955,852.168,817.144,842.093,840.174,0.000,0.000,0
1508374120.957,861.353,818.104,841.065,839.351,0.000,0.000,0
1508374120.959,860.805,822.147,842.024,844.218,0.000,0.000,0
1508374120.961,849.153,824.135,844.355,843.052,0.000,0.000,0
1508374120.963,847.645,822.627,843.464,853.745,0.000,0.000,0
1508374120.965,844.766,821.051,848.467,857.309,0.000,0.000,0
1508374120.967,843.738,818.789,847.919,840.722,0.000,0.000,0
1508374120.969,847.508,820.640,844.286,832.429,0.000,0.000,0
1508374120.971,861.970,821.736,844.560,847.096,0.000,0.000,0
1508374120.973,864.094,819.406,843.395,848.741,0.000,0.000,0
1508374120.975,868.824,819.817,841.613,839.762,0.000,0.000,0
1508374120.977,872.731,822.216,841.407,834.416,0.000,0.000,0
1508374120.979,868.755,825.095,841.956,842.504,0.000,0.000,0
1508374120.981,863.615,823.518,842.710,851.072,0.000,0.000,0
1508374120.983,851.209,823.176,840.174,845.246,0.000,0.000,0
1508374120.985,844.492,817.761,843.943,840.859,0.000,0.000,0
1508374120.987,839.283,816.938,845.383,836.815,0.000,0.000,0
1508374120.989,842.024,817.624,845.177,839.283,0.000,0.000,0
1508374120.991,846.205,818.172,843.258,841.956,0.000,0.000,0
1508374120.993,852.374,816.047,840.654,844.629,0.000,0.000,0
1508374120.995,852.100,812.346,841.750,847.165,0.000,0.000,0
1508374120.997,852.991,811.935,840.516,854.156,0.000,0.000,0
1508374120.999,846.959,815.773,840.722,850.660,0.000,0.000,0
1508374121.001,838.666,820.571,840.516,841.133,0.000,0.000,0
1508374121.003,835.102,823.244,842.641,833.320,0.000,0.000,0
1508374121.005,838.871,822.490,843.943,839.831,0.000,0.000,0
1508374121.007,841.133,820.640,841.407,842.641,0.000,0.000,0
1508374121.009,851.414,820.297,843.738,846.548,0.000,0.000,0
1508374121.011,850.935,819.200,842.847,844.012,0.000,0.000,0
1508374121.013,855.527,817.898,841.339,841.407,0.000,0.000,0
1508374121.015,864.163,809.947,843.601,856.212,0.000,0.000,0
1508374121.017,863.546,812.826,847.439,855.801,0.000,0.000,0
1508374121.019,855.390,816.870,849.975,858.817,0.000,0.000,0
1508374121.021,853.402,818.515,847.713,857.515,0.000,0.000,0
1508374121.023,847.576,817.487,844.766,847.028,0.000,0.000,0
1508374121.025,837.980,821.051,846.137,839.831,0.000,0.000,0
1508374121.027,845.794,823.655,847.645,846.068,0.000,0.000,0
1508374121.029,862.998,819.954,850.729,864.574,0.000,0.000,0
1508374121.031,866.151,814.814,847.782,864.163,0.000,0.000,0
1508374121.033,860.393,815.842,844.149,848.056,0.000,0.000,0
1508374121.035,849.701,816.733,845.657,834.553,0.000,0.000,0
1508374121.037,849.838,817.487,844.697,843.806,0.000,0.000,0
1508374121.039,851.826,818.583,845.383,856.966,0.000,0.000,0
1508374121.041,855.047,820.023,845.520,851.826,0.000,0.000,0
1508374121.043,850.798,821.599,843.669,843.464,0.000,0.000,0
1508374121.045,840.859,825.095,845.109,840.311,0.000,0.000,0
1508374121.047,842.915,827.082,846.754,843.875,0.000,0.000,0
1508374121.049,852.443,823.998,847.713,856.555,0.000,0.000,0
1508374121.051,853.402,820.160,849.358,853.402,0.000,0.000,0
1508374121.053,849.495,817.487,849.701,843.943,0.000,0.000,0
1508374121.055,855.321,817.761,846.822,843.121,0.000,0.000,0
1508374121.057,854.156,818.309,842.436,840.791,0.000,0.000,0
1508374121.059,849.495,813.374,845.040,844.218,0.000,0.000,0
1508374121.061,840.105,814.265,844.149,844.697,0.000,0.000,0
1508374121.063,840.174,815.568,843.464,846.000,0.000,0.000,0
1508374121.065,845.794,817.966,845.726,840.379,0.000,0.000,0
1508374121.067,848.467,819.749,844.629,839.420,0.000,0.000,0
1508374121.069,851.894,818.652,845.726,841.750,0.000,0.000,0
1508374121.071,860.942,817.761,845.863,846.754,0.000,0.000,0
1508374121.073,862.038,816.664,845.931,844.149,0.000,0.000,0
1508374121.075,863.889,815.088,843.532,841.819,0.000,0.000,0
1508374121.077,863.546,818.241,842.367,844.081,0.000,0.000,0
1508374121.079,858.063,823.724,845.588,852.580,0.000,0.000,0
1508374121.081,848.193,822.422,849.084,863.889,0.000,0.000,0
1508374121.083,844.629,823.587,847.645,860.599,0.000,0.000,0
1508374121.085,854.636,824.478,848.056,852.100,0.000,0.000,0
1508374121.087,848.878,823.176,847.165,833.594,0.000,0.000,0
1508374121.089,850.112,823.724,845.451,831.469,0.000,0.000,0
1508374121.091,856.486,823.381,846.205,837.843,0.000,0.000,0
1508374121.093,857.035,821.119,848.604,841.613,0.000,0.000,0
1508374121.095,864.643,822.216,846.137,846.000,0.000,0.000,0
1508374121.097,870.057,820.365,847.096,855.938,0.000,0.000,0
1508374121.099,859.365,820.297,845.931,857.446,0.000,0.000,0
1508374121.101,845.520,823.792,845.726,848.810,0.000,0.000,0
1508374121.103,838.666,822.216,847.165,839.283,0.000,0.000,0
1508374121.105,844.629,821.325,847.987,847.028,0.000,0.000,0
1508374121.107,848.604,821.256,847.233,849.769,0.000,0.000,0
1508374121.109,852.168,820.571,849.838,849.016,0.000,0.000,0
1508374121.111,856.966,817.144,850.729,848.947,0.000,0.000,0
1508374121.113,860.325,817.213,849.906,850.181,0.000,0.000,0
1508374121.115,856.486,817.555,845.520,860.119,0.000,0.000,0
1508374121.117,853.882,817.350,846.617,859.022,0.000,0.000,0
1508374121.119,848.947,817.555,847.713,849.632,0.000,0.000,0
1508374121.121,847.576,820.091,847.919,850.523,0.000,0.000,0
1508374121.123,844.081,820.845,845.931,849.838,0.000,0.000,0
1508374121.125,844.766,816.596,848.878,847.987,0.000,0.000,0
1508374121.127,841.682,815.568,849.427,848.947,0.000,0.000,0
1508374121.129,850.112,817.761,848.193,851.483,0.000,0.000,0
1508374121.131,853.882,818.857,848.330,841.545,0.000,0.000,0
1508374121.133,851.552,815.910,846.754,836.815,0.000,0.000,0
1508374121.135,848.878,814.882,846.617,829.618,0.000,0.000,0
1508374121.137,852.991,816.801,845.863,837.432,0.000,0.000,0
1508374121.139,851.963,819.063,843.121,838.940,0.000,0.000,0
1508374121.141,851.346,818.035,846.754,842.298,0.000,0.000,0
1508374121.143,849.564,821.736,848.604,839.900,0.000,0.000,0
1508374121.145,840.791,822.010,851.689,840.516,0.000,0.000,0
1508374121.147,841.887,820.091,849.221,844.766,0.000,0.000,0
1508374121.149,849.701,818.515,848.536,855.664,0.000,0.000,0
1508374121.151,848.124,818.995,849.906,849.632,0.000,0.000,0
1508374121.153,848.878,818.515,845.520,843.806,0.000,0.000,0
1508374121.155,855.047,819.337,843.395,842.778,0.000,0.000,0
1508374121.157,859.228,821.942,843.601,844.012,0.000,0.000,0
1508374121.159,853.471,821.805,847.645,847.850,0.000,0.000,0
1508374121.161,844.766,822.422,849.906,846.548,0.000,0.000,0
1508374121.163,847.713,819.817,849.701,859.845,0.000,0.000,0
1508374121.165,844.834,817.829,849.701,859.708,0.000,0.000,0
1508374121.167,837.775,818.583,847.233,849.221,0.000,0.000,0
1508374121.169,842.161,818.857,844.492,838.049,0.000,0.000,0
1508374121.171,851.894,817.624,842.778,846.137,0.000,0.000,0
1508374121.173,852.031,815.362,840.996,841.065,0.000,0.000,0
1508374121.175,852.854,813.511,838.460,835.102,0.000,0.000,0
1508374121.177,851.072,815.362,842.367,837.775,0.000,0.000,0
1508374121.179,846.754,818.583,847.028,840.722,0.000,0.000,0
1508374121.181,848.810,823.587,848.741,850.798,0.000,0.000,0
1508374121.183,852.648,823.587,849.221,859.228,0.000,0.000,0
1508374121.185,846.411,822.764,850.044,849.358,0.000,0.000,0
1508374121.187,844.149,823.244,844.972,842.161,0.000,0.000,0
1508374121.189,846.479,819.886,847.028,844.697,0.000,0.000,0
1508374121.191,850.249,820.160,847.165,844.834,0.000,0.000,0
1508374121.193,857.103,820.845,846.205,844.629,0.000,0.000,0
1508374121.195,860.256,817.761,847.782,851.620,0.000,0.000,0
1508374121.197,859.913,819.611,844.903,859.639,0.000,0.000,0
1508374121.199,852.305,820.365,847.028,855.664,0.000,0.000,0
1508374121.201,840.379,822.147,847.165,843.395,0.000,0.000,0
1508374121.203,840.448,822.216,849.906,844.218,0.000,0.000,0
1508374121.205,840.722,816.596,851.414,849.975,0.000,0.000,0
1508374121.207,838.392,816.253,850.044,850.386,0.000,0.000,0
1508374121.209,843.395,817.350,847.987,856.555,0.000,0.000,0
1508374121.211,848.056,817.418,845.863,848.330,0.000,0.000,0
1508374121.213,854.430,816.459,846.685,840.105,0.000,0.000,0
1508374121.215,853.196,813.785,844.012,851.689,0.000,0.000,0
1508374121.217,853.676,814.882,844.560,850.112,0.000,0.000,0
1508374121.219,844.286,814.745,844.286,840.037,0.000,0.000,0
1508374121.221,848.399,816.253,843.875,841.887,0.000,0.000,0
1508374121.223,847.713,819.474,844.423,843.190,0.000,0.000,0
1508374121.225,841.270,818.104,847.782,848.056,0.000,0.000,0
1508374121.227,843.806,815.362,848.399,846.754,0.000,0.000,0
1508374121.229,851.826,814.128,849.153,850.249,0.000,0.000,0
1508374121.231,848.262,814.197,844.972,842.161,0.000,0.000,0
1508374121.233,849.290,814.060,843.532,832.977,0.000,0.000,0
1508374121.235,841.613,816.801,842.778,822.353,0.000,0.000,0
1508374121.237,850.660,813.923,847.508,838.049,0.000,0.000,0
1508374121.239,854.910,813.580,849.632,849.769,0.000,0.000,0
1508374121.241,845.040,819.063,849.838,850.660,0.000,0.000,0
1508374121.243,837.158,819.406,849.221,848.878,0.000,0.000,0
1508374121.245,833.457,817.213,846.137,836.198,0.000,0.000,0
1508374121.247,831.058,814.128,847.508,833.114,0.000,0.000,0
1508374121.249,833.183,813.717,849.084,842.367,0.000,0.000,0
1508374121.251,836.198,815.910,848.124,840.859,0.000,0.000,0
1508374121.253,845.931,815.019,845.451,830.030,0.000,0.000,0
1508374121.255,852.305,815.499,848.878,827.014,0.000,0.000,0
1508374121.257,858.337,820.365,849.290,837.021,0.000,0.000,0
1508374121.259,855.116,820.228,851.414,840.174,0.000,0.000,0
1508374121.261,851.209,820.228,849.975,844.218,0.000,0.000,0
1508374121.263,841.065,818.583,849.632,838.049,0.000,0.000,0
1508374121.265,835.650,818.309,850.249,836.747,0.000,0.000,0
1508374121.267,836.541,821.462,848.673,830.921,0.000,0.000,0
1508374121.269,844.492,823.313,849.290,833.799,0.000,0.000,0
1508374121.271,854.841,822.627,847.576,838.117,0.000,0.000,0
1508374121.273,858.817,821.736,845.863,839.146,0.000,0.000,0
1508374121.275,859.502,821.188,844.903,839.420,0.000,0.000,0
1508374121.277,860.119,819.406,847.370,843.121,0.000,0.000,0
1508374121.279,854.019,816.664,849.838,847.919,0.000,0.000,0
1508374121.281,843.258,820.708,851.894,849.221,0.000,0.000,0
1508374121.283,840.516,821.051,852.648,857.377,0.000,0.000,0
1508374121.285,841.339,820.503,849.290,846.274,0.000,0.000,0
1508374121.287,841.750,821.325,845.931,837.569,0.000,0.000,0
1508374121.289,845.520,818.309,845.726,836.952,0.000,0.000,0
1508374121.291,845.177,815.362,847.713,835.307,0.000,0.000,0
1508374121.293,845.931,815.225,846.068,834.553,0.000,0.000,0
1508374121.295,854.704,814.882,846.685,850.866,0.000,0.000,0
1508374121.297,849.221,812.278,844.012,853.813,0.000,0.000,0
1508374121.299,838.392,815.156,845.246,837.843,0.000,0.000,0
1508374121.301,840.242,821.462,848.604,835.581,0.000,0.000,0
1508374121.303,850.660,824.067,846.548,844.218,0.000,0.000,0
1508374121.305,850.181,822.490,844.834,846.205,0.000,0.000,0
1508374121.307,848.056,818.515,844.012,844.218,0.000,0.000,0
1508374121.309,851.072,817.898,847.028,844.560,0.000,0.000,0
1508374121.311,856.898,821.668,848.947,847.919,0.000,0.000,0
1508374121.313,858.954,824.204,848.536,849.427,0.000,0.000,0
1508374121.315,866.151,826.740,847.508,860.256,0.000,0.000,0
1508374121.317,861.970,823.518,843.532,858.543,0.000,0.000,0
1508374121.319,851.346,820.571,844.492,851.552,0.000,0.000,0
1508374121.321,841.956,822.010,845.109,844.766,0.000,0.000,0
1508374121.323,846.205,822.216,844.218,847.508,0.000,0.000,0
1508374121.325,856.761,821.599,848.193,851.894,0.000,0.000,0
1508374121.327,857.926,825.095,850.798,854.019,0.000,0.000,0
1508374121.329,853.539,819.269,849.358,864.506,0.000,0.000,0
1508374121.331,847.028,815.156,851.689,857.172,0.000,0.000,0
1508374121.333,848.741,815.225,848.810,842.298,0.000,0.000,0
1508374121.335,849.564,817.418,844.218,833.799,0.000,0.000,0
1508374121.337,850.318,819.269,844.972,838.940,0.000,0.000,0
1508374121.339,838.803,820.503,845.588,845.726,0.000,0.000,0
1508374121.341,832.223,815.910,846.891,844.492,0.000,0.000,0
1508374121.343,841.065,812.826,848.467,845.863,0.000,0.000,0
1508374121.345,842.436,815.430,849.358,849.084,0.000,0.000,0
1508374121.347,835.307,815.773,848.673,856.829,0.000,0.000,0
1508374121.349,835.102,816.733,848.604,851.140,0.000,0.000,0
1508374121.351,833.251,818.583,847.713,841.065,0.000,0.000,0
1508374121.353,843.943,823.450,845.863,838.734,0.000,0.000,0
1508374121.355,856.212,823.450,844.903,842.367,0.000,0.000,0
1508374121.357,852.100,821.942,845.794,843.052,0.000,0.000,0
1508374121.359,842.847,818.789,845.314,841.750,0.000,0.000,0
1508374121.361,833.868,817.487,844.766,838.940,0.000,0.000,0
1508374121.363,835.856,820.091,848.124,835.239,0.000,0.000,0
1508374121.365,850.523,818.378,846.891,839.488,0.000,0.000,0
1508374121.367,850.044,819.954,846.274,838.255,0.000,0.000,0
1508374121.369,845.726,820.708,846.754,834.416,0.000,0.000,0
1508374121.371,846.822,817.692,848.056,833.799,0.000,0.000,0
1508374121.373,841.270,812.278,847.850,833.594,0.000,0.000,0
1508374121.375,837.706,810.770,846.000,835.239,0.000,0.000,0
1508374121.377,851.072,813.169,844.355,841.956,0.000,0.000,0
1508374121.379,857.583,809.056,849.906,856.349,0.000,0.000,0
1508374121.381,848.741,806.246,854.156,857.515,0.000,0.000,0
1508374121.383,843.395,809.673,850.455,851.894,0.000,0.000,0
1508374121.385,839.146,816.596,846.617,845.863,0.000,0.000,0
1508374121.387,839.762,820.023,846.891,842.230,0.000,0.000,0
1508374121.389,843.327,821.462,845.383,838.666,0.000,0.000,0
1508374121.391,844.012,819.406,848.399,838.255,0.000,0.000,0
1508374121.393,845.451,819.543,847.713,834.348,0.000,0.000,0
1508374121.395,846.754,818.583,845.109,832.497,0.000,0.000,0
1508374121.397,847.302,818.241,843.464,834.211,0.000,0.000,0
1508374121.399,841.750,817.487,842.710,846.822,0.000,0.000,0
1508374121.401,843.395,819.269,846.068,844.697,0.000,0.000,0
1508374121.403,844.012,819.406,848.124,841.750,0.000,0.000,0
1508374121.405,851.552,819.886,849.975,840.448,0.000,0.000,0
1508374121.407,849.221,820.503,848.878,833.114,0.000,0.000,0
1508374121.409,844.629,823.381,848.947,834.828,0.000,0.000,0
1508374121.411,850.798,823.655,845.657,845.726,0.000,0.000,0
1508374121.413,853.334,820.708,845.177,848.604,0.000,0.000,0
1508374121.415,858.611,819.817,846.411,852.100,0.000,0.000,0
1508374121.417,852.717,820.503,846.205,845.314,0.000,0.000,0
1508374121.419,849.084,821.462,848.262,849.221,0.000,0.000,0
1508374121.421,849.906,822.490,849.221,859.160,0.000,0.000,0
1508374121.423,845.246,819.063,850.455,861.764,0.000,0.000,0
1508374121.425,847.576,817.555,850.318,854.979,0.000,0.000,0
1508374121.427,854.979,817.966,850.523,848.193,0.000,0.000,0
1508374121.429,858.954,820.297,851.140,850.044,0.000,0.000,0
1508374121.431,854.636,818.515,848.399,850.660,0.000,0.000,0
1508374121.433,861.833,816.321,847.439,863.615,0.000,0.000,0
1508374121.435,862.518,815.979,845.657,861.901,0.000,0.000,0
1508374121.437,854.636,816.664,842.710,851.072,0.000,0.000,0
1508374121.439,852.031,817.898,845.451,845.451,0.000,0.000,0
1508374121.441,847.919,820.228,847.576,853.882,0.000,0.000,0
1508374121.443,844.903,823.655,847.439,849.084,0.000,0.000,0
1508374121.445,857.789,824.683,848.056,859.571,0.000,0.000,0
1508374121.447,853.813,826.054,851.209,860.188,0.000,0.000,0
1508374121.449,844.081,823.861,852.031,856.624,0.000,0.000,0
1508374121.451,839.900,821.805,851.826,841.133,0.000,0.000,0
1508374121.453,852.374,821.051,848.536,842.778,0.000,0.000,1
1508374121.455,850.592,819.817,847.233,843.806,0.000,0.000,0
1508374121.457,855.801,818.926,846.685,843.258,0.000,0.000,0
1508374121.459,854.499,815.842,846.479,843.052,0.000,0.000,0
1508374121.461,840.448,815.293,848.536,842.436,0.000,0.000,0
1508374121.463,833.388,817.213,847.645,837.912,0.000,0.000,0
1508374121.465,833.799,817.898,845.794,841.545,0.000,0.000,0
1508374121.467,831.880,817.075,846.000,837.364,0.000,0.000,0
1508374121.469,840.174,814.951,849.769,836.404,0.000,0.000,0
1508374121.471,845.451,817.898,847.233,830.852,0.000,0.000,0
1508374121.473,848.878,818.104,845.794,829.550,0.000,0.000,0
1508374121.475,843.943,814.677,843.806,828.864,0.000,0.000,0
1508374121.477,845.931,814.060,843.395,830.030,0.000,0.000,0
1508374121.479,845.451,813.923,846.822,836.404,0.000,0.000,0
1508374121.481,840.996,814.745,848.536,841.270,0.000,0.000,0
1508374121.483,838.734,817.418,847.850,842.847,0.000,0.000,0
1508374121.485,830.167,821.393,847.645,832.086,0.000,0.000,0
1508374121.487,840.242,821.119,847.713,842.641,0.000,0.000,0
1508374121.489,840.585,815.568,847.508,839.694,0.000,0.000,0
1508374121.491,839.420,816.527,847.370,834.896,0.000,0.000,0
1508374121.493,850.523,820.023,849.495,840.174,0.000,0.000,0
1508374121.495,859.297,821.325,849.084,846.342,0.000,0.000,0
1508374121.497,860.256,819.886,850.935,861.696,0.000,0.000,0
1508374121.499,851.552,819.269,847.233,853.950,0.000,0.000,0
1508374121.501,844.972,816.870,847.165,840.379,0.000,0.000,0
1508374121.503,847.713,818.446,848.124,835.993,0.000,0.000,0
1508374121.505,850.866,817.624,849.084,842.778,0.000,0.000,0
1508374121.507,854.567,818.926,850.181,843.601,0.000,0.000,0
1508374121.509,852.717,821.462,849.221,839.420,0.000,0.000,0
1508374121.511,843.190,821.256,845.794,833.594,0.000,0.000,0
1508374121.513,846.342,820.160,841.065,845.246,0.000,0.000,0
1508374121.515,851.346,814.608,842.641,843.464,0.000,0.000,0
1508374121.517,848.193,812.141,843.190,834.074,0.000,0.000,0
1508374121.519,843.464,813.580,845.040,836.610,0.000,0.000,0
1508374121.521,845.588,817.966,846.342,849.906,0.000,0.000,0
1508374121.523,842.436,820.228,846.959,841.065,0.000,0.000,0
1508374121.525,840.448,820.297,846.137,835.993,0.000,0.000,0
1508374121.527,845.314,819.406,845.726,837.226,0.000,0.000,0
1508374121.529,851.620,820.091,845.726,842.915,0.000,0.000,0
1508374121.531,855.938,819.406,844.834,856.144,0.000,0.000,0
1508374121.533,858.268,815.362,846.617,848.330,0.000,0.000,0
1508374121.535,857.583,813.032,844.560,837.226,0.000,0.000,0
1508374121.537,857.789,815.088,843.052,834.759,0.000,0.000,0
1508374121.539,853.128,817.213,843.395,838.871,0.000,0.000,0
1508374121.541,849.084,821.805,842.230,836.815,0.000,0.000,0
1508374121.543,846.754,822.696,842.847,843.258,0.000,0.000,0
1508374121.545,850.318,823.655,844.012,848.536,0.000,0.000,0
1508374121.547,849.495,820.434,844.218,841.819,0.000,0.000,0
1508374121.549,850.318,814.265,842.710,843.121,0.000,0.000,0
1508374121.551,842.710,814.402,840.791,833.045,0.000,0.000,0
1508374121.553,852.305,817.350,842.230,842.573,0.000,0.000,0
1508374121.555,862.244,814.951,843.875,844.629,0.000,0.000,0
1508374121.557,863.135,815.499,846.205,840.105,0.000,0.000,0
1508374121.559,862.655,817.487,842.778,841.407,0.000,0.000,0
1508374121.561,847.782,816.527,843.875,837.226,0.000,0.000,0
1508374121.563,844.697,818.720,845.657,835.239,0.000,0.000,0
1508374121.565,848.741,816.664,846.274,847.508,0.000,0.000,0
1508374121.567,845.726,815.088,847.850,845.794,0.000,0.000,0
1508374121.569,845.451,817.692,845.588,838.186,0.000,0.000,0
1508374121.571,852.168,818.241,844.972,839.009,0.000,0.000,0
1508374121.573,855.527,818.995,844.149,840.996,0.000,0.000,0
1508374121.575,857.103,819.817,842.641,840.722,0.000,0.000,0
1508374121.577,861.421,823.998,843.327,842.230,0.000,0.000,0
1508374121.579,857.377,824.204,843.738,847.576,0.000,0.000,0
1508374121.581,845.794,822.764,845.520,843.395,0.000,0.000,0
1508374121.583,844.560,820.914,844.560,844.492,0.000,0.000,0
1508374121.585,851.552,825.437,845.863,839.146,0.000,0.000,0
1508374121.587,857.515,822.901,847.439,839.009,0.000,0.000,0
1508374121.589,853.402,817.418,845.726,839.420,0.000,0.000,0
1508374121.591,855.321,816.390,841.887,838.460,0.000,0.000,0
1508374121.593,859.571,816.253,839.694,837.638,0.000,0.000,0
1508374121.595,863.820,813.991,838.529,839.900,0.000,0.000,0
1508374121.597,861.558,815.705,843.806,849.427,0.000,0.000,0
1508374121.599,854.773,815.156,846.068,866.562,0.000,0.000,0
1508374121.601,850.523,819.954,847.370,860.530,0.000,0.000,0
1508374121.603,846.617,824.135,847.576,847.096,0.000,0.000,0
1508374121.605,846.959,827.494,848.947,847.713,0.000,0.000,0
1508374121.607,849.290,824.615,851.414,847.645,0.000,0.000,0
1508374121.609,856.486,821.531,852.648,842.778,0.000,0.000,0
1508374121.611,852.854,820.365,848.262,848.947,0.000,0.000,0
1508374121.613,844.834,819.063,846.274,847.713,0.000,0.000,0
1508374121.615,852.237,818.172,846.137,847.576,0.000,0.000,0
1508374121.617,851.552,819.543,846.411,836.952,0.000,0.000,0
1508374121.619,847.576,820.571,846.411,839.420,0.000,0.000,0
1508374121.621,844.081,821.531,844.012,841.956,0.000,0.000,0
1508374121.623,842.847,823.518,845.314,846.548,0.000,0.000,0
1508374121.625,839.351,821.531,849.084,846.959,0.000,0.000,0
1508374121.627,840.105,817.487,847.919,847.919,0.000,0.000,0
1508374121.629,843.601,817.418,846.342,848.467,0.000,0.000,0
1508374121.631,849.427,818.446,845.040,852.100,0.000,0.000,0
1508374121.633,855.047,815.842,844.149,850.386,0.000,0.000,0
1508374121.635,855.458,819.269,844.081,837.843,0.000,0.000,0
1508374121.637,853.950,820.023,846.205,840.311,0.000,0.000,0
1508374121.639,857.377,819.886,847.165,845.657,0.000,0.000,0
1508374121.641,855.116,820.708,848.056,845.246,0.000,0.000,0
1508374121.643,849.495,819.406,844.218,846.617,0.000,0.000,0
1508374121.645,838.871,820.571,843.738,834.485,0.000,0.000,0
1508374121.647,828.042,818.241,843.875,831.332,0.000,0.000,0
1508374121.649,831.812,820.571,844.355,835.376,0.000,0.000,0
1508374121.651,844.423,820.845,841.750,831.538,0.000,0.000,0
1508374121.653,848.262,820.914,840.585,835.307,0.000,0.000,0
1508374121.655,849.906,818.104,839.968,837.706,0.000,0.000,0
1508374121.657,846.342,814.539,837.843,838.666,0.000,0.000,0
1508374121.659,846.068,813.580,837.501,840.722,0.000,0.000,0
1508374121.661,847.165,817.075,837.432,843.532,0.000,0.000,0
1508374121.663,853.265,822.627,839.694,847.370,0.000,0.000,0
1508374121.665,855.390,822.627,843.738,849.564,0.000,0.000,0
1508374121.667,860.119,817.966,844.218,857.035,0.000,0.000,0
1508374121.669,851.003,816.527,845.520,859.913,0.000,0.000,0
1508374121.671,843.943,813.854,845.177,855.938,0.000,0.000,0
1508374121.673,844.697,818.035,841.613,844.903,0.000,0.000,0
1508374121.675,848.673,819.406,842.710,838.323,0.000,0.000,0
1508374121.677,862.312,820.434,843.052,848.741,0.000,0.000,0
1508374121.679,858.954,821.188,842.093,842.641,0.000,0.000,0
1508374121.681,846.822,821.736,841.750,838.117,0.000,0.000,0
1508374121.683,846.685,820.914,843.738,838.529,0.000,0.000,0
1508374121.685,847.850,821.668,843.190,832.566,0.000,0.000,0
1508374121.687,854.979,821.119,843.875,846.000,0.000,0.000,0
1508374121.689,848.124,818.241,843.875,847.165,0.000,0.000,0
1508374121.691,853.882,820.640,841.133,845.520,0.000,0.000,0
1508374121.693,865.465,820.982,840.791,843.875,0.000,0.000,0
1508374121.695,865.945,818.995,842.778,843.738,0.000,0.000,0
1508374121.697,870.537,816.253,845.246,852.374,0.000,0.000,0
1508374121.699,855.527,815.019,846.754,847.576,0.000,0.000,0
1508374121.701,855.253,817.350,846.754,860.942,0.000,0.000,0
1508374121.703,847.096,816.321,847.782,853.265,0.000,0.000,0
1508374121.705,841.750,818.652,844.423,844.423,0.000,0.000,0
1508374121.707,842.367,817.418,845.109,840.654,0.000,0.000,0
1508374121.709,849.564,818.104,845.109,840.722,0.000,0.000,0
1508374121.711,852.648,817.624,843.738,845.588,0.000,0.000,0
1508374121.713,850.523,816.801,845.314,846.411,0.000,0.000,0
1508374121.715,847.782,819.680,842.573,837.980,0.000,0.000,0
1508374121.717,846.685,821.668,843.806,834.828,0.000,0.000,0
1508374121.719,852.237,823.107,844.834,843.464,0.000,0.000,0
1508374121.721,849.427,819.749,845.657,847.370,0.000,0.000,0
1508374121.723,846.342,820.503,848.467,850.798,0.000,0.000,0
1508374121.725,842.504,819.611,847.782,851.894,0.000,0.000,0
1508374121.727,842.230,818.446,848.810,849.221,0.000,0.000,0
1508374121.729,844.149,817.144,847.645,844.355,0.000,0.000,0
1508374121.731,850.386,813.991,845.109,855.527,0.000,0.000,0
1508374121.733,850.866,811.455,844.012,850.798,0.000,0.000,0
1508374121.735,849.221,811.387,844.492,839.762,0.000,0.000,0
1508374121.737,851.277,814.677,845.657,849.290,0.000,0.000,0
1508374121.739,842.710,819.543,847.850,853.813,0.000,0.000,0
1508374121.741,831.812,819.474,847.576,847.508,0.000,0.000,0
1508374121.743,834.279,821.942,846.959,844.081,0.000,0.000,0
1508374121.745,844.081,823.518,846.822,838.392,0.000,0.000,0
1508374121.747,848.741,820.571,842.367,845.726,0.000,0.000,0
1508374121.749,851.140,817.692,842.984,843.121,0.000,0.000,0
1508374121.751,850.935,816.253,842.093,841.956,0.000,0.000,0
1508374121.753,853.402,815.225,840.996,841.407,0.000,0.000,0
1508374121.755,854.430,818.720,838.529,840.037,0.000,0.000,0
1508374121.757,848.467,820.777,837.980,837.158,0.000,0.000,0
1508374121.759,841.270,821.805,837.706,834.348,0.000,0.000,0
1508374121.761,845.451,820.777,840.242,841.407,0.000,0.000,0
1508374121.763,838.049,816.801,843.258,845.246,0.000,0.000,0
1508374121.765,843.052,814.265,841.613,847.028,0.000,0.000,0
1508374121.767,838.049,818.104,840.928,833.731,0.000,0.000,0
1508374121.769,846.342,820.228,841.887,832.017,0.000,0.000,0
1508374121.771,853.539,816.664,842.573,833.320,0.000,0.000,0
1508374121.773,851.072,813.854,843.943,835.239,0.000,0.000,0
1508374121.775,849.427,814.539,844.218,839.420,0.000,0.000,0
1508374121.777,859.982,816.596,841.956,842.161,0.000,0.000,0
1508374121.779,858.268,817.555,842.024,846.617,0.000,0.000,0
1508374121.781,846.068,818.583,844.972,852.854,0.000,0.000,0
1508374121.783,839.900,818.309,844.834,855.870,0.000,0.000,0
1508374121.785,838.871,817.007,843.052,848.399,0.000,0.000,0
1508374121.787,837.158,814.128,841.065,842.298,0.000,0.000,0
1508374121.789,839.625,811.798,839.351,836.678,0.000,0.000,0
1508374121.791,845.314,810.701,842.847,841.613,0.000,0.000,0
1508374121.793,854.088,810.153,847.645,848.193,0.000,0.000,0
1508374121.795,861.901,815.293,845.314,855.253,0.000,0.000,0
1508374121.797,852.785,818.515,841.065,850.660,0.000,0.000,0
1508374121.799,850.181,820.571,840.174,840.928,0.000,0.000,0
1508374121.801,840.654,822.079,840.516,833.114,0.000,0.000,0
1508374121.803,847.302,824.615,843.052,840.996,0.000,0.000,0
1508374121.805,843.190,823.107,846.548,842.024,0.000,0.000,0
1508374121.807,841.682,821.805,844.492,839.077,0.000,0.000,0
1508374121.809,842.367,818.104,841.956,836.061,0.000,0.000,0
1508374121.811,843.464,817.213,843.532,838.940,0.000,0.000,0
1508374121.813,847.233,814.539,846.068,844.629,0.000,0.000,0
1508374121.815,859.845,813.717,844.423,848.193,0.000,0.000,0
1508374121.817,853.334,813.923,840.791,846.068,0.000,0.000,0
1508374121.819,842.161,815.842,840.516,842.504,0.000,0.000,0
1508374121.821,834.142,818.583,841.339,838.803,0.000,0.000,0
1508374121.823,842.778,820.571,841.819,844.081,0.000,0.000,0
1508374121.825,848.056,819.337,843.464,843.464,0.000,0.000,0
1508374121.827,849.084,817.829,847.096,845.383,0.000,0.000,0
1508374121.829,850.523,814.882,845.109,853.813,0.000,0.000,0
1508374121.831,851.826,816.664,846.754,852.511,0.000,0.000,0
1508374121.833,847.370,819.132,848.262,842.161,0.000,0.000,0
1508374121.835,852.991,818.652,849.838,841.750,0.000,0.000,0
1508374121.837,856.624,816.733,846.617,849.838,0.000,0.000,0
1508374121.839,848.056,816.253,844.903,848.878,0.000,0.000,0
1508374121.841,843.943,817.898,845.726,851.689,0.000,0.000,0
1508374121.843,843.601,821.668,847.302,846.479,0.000,0.000,0
1508374121.845,846.205,824.409,847.165,842.298,0.000,0.000,0
1508374121.847,847.439,821.873,847.165,855.047,0.000,0.000,0
1508374121.849,839.900,819.749,846.617,844.834,0.000,0.000,0
1508374121.851,838.871,816.801,844.903,840.654,0.000,0.000,0
1508374121.853,841.133,816.184,843.532,841.065,0.000,0.000,0
1508374121.855,842.915,814.539,839.077,840.585,0.000,0.000,0
1508374121.857,841.682,814.471,839.077,843.327,0.000,0.000,0
1508374121.859,846.068,819.543,842.230,842.230,0.000,0.000,0
1508374121.861,845.451,823.176,845.794,841.202,0.000,0.000,0
1508374121.863,846.685,825.917,849.906,855.870,0.000,0.000,0
1508374121.865,843.601,821.188,853.676,854.567,0.000,0.000,0
1508374121.867,841.133,815.088,851.826,850.660,0.000,0.000,0
1508374121.869,842.915,812.894,849.975,848.878,0.000,0.000,0
1508374121.871,849.153,816.116,849.084,846.822,0.000,0.000,0
1508374121.873,853.813,819.200,846.411,845.040,0.000,0.000,0
1508374121.875,856.349,818.583,845.451,840.037,0.000,0.000,0
1508374121.877,858.337,818.104,844.149,839.009,0.000,0.000,0
1508374121.879,848.741,819.543,844.492,841.339,0.000,0.000,0
1508374121.881,847.850,818.172,845.383,858.200,0.000,0.000,0
1508374121.883,846.891,822.353,844.629,853.059,0.000,0.000,0
1508374121.885,842.230,823.587,843.190,844.149,0.000,0.000,0
1508374121.887,849.221,827.219,842.504,843.943,0.000,0.000,0
1508374121.889,853.265,825.986,844.081,846.000,0.000,0.000,0
1508374121.891,850.935,824.135,844.834,842.298,0.000,0.000,0
1508374121.893,846.891,822.010,844.629,836.061,0.000,0.000,0
1508374121.895,854.293,822.010,845.177,841.545,0.000,0.000,0
1508374121.897,852.374,818.241,843.532,847.028,0.000,0.000,0
1508374121.899,842.710,813.991,844.903,844.629,0.000,0.000,0
1508374121.901,834.211,815.636,843.875,833.936,0.000,0.000,0
1508374121.903,837.226,819.543,846.754,838.597,0.000,0.000,0
1508374121.905,838.117,820.914,846.137,838.255,0.000,0.000,0
1508374121.907,847.782,822.696,843.532,842.367,0.000,0.000,0
1508374121.909,844.286,822.970,843.738,840.242,0.000,0.000,0
1508374121.911,844.286,822.285,843.669,838.460,0.000,0.000,0
1508374121.913,853.402,822.216,844.492,839.214,0.000,0.000,0
1508374121.915,866.562,817.829,845.726,852.785,0.000,0.000,0
1508374121.917,861.147,813.717,845.657,851.003,0.000,0.000,0
1508374121.919,860.736,814.882,846.205,849.701,0.000,0.000,0
1508374121.921,843.052,816.801,846.000,844.903,0.000,0.000,0
1508374121.923,834.622,817.898,849.632,848.467,0.000,0.000,0
1508374121.925,839.968,819.543,850.866,849.838,0.000,0.000,0
1508374121.927,842.436,823.313,848.878,845.794,0.000,0.000,0
1508374121.929,852.168,823.861,845.314,852.580,0.000,0.000,0
1508374121.931,851.689,822.285,842.915,847.302,0.000,0.000,0
1508374121.933,842.641,819.817,843.669,840.585,0.000,0.000,0
1508374121.935,846.205,818.995,842.710,848.193,0.000,0.000,0
1508374121.937,844.834,817.966,842.847,836.610,0.000,0.000,0
1508374121.939,850.935,818.789,846.000,844.081,0.000,0.000,0
1508374121.941,847.370,818.583,847.508,847.508,0.000,0.000,0
1508374121.943,840.928,819.200,847.508,843.532,0.000,0.000,0
1508374121.945,831.126,816.390,847.987,839.146,0.000,0.000,0
1508374121.947,840.928,817.213,848.536,854.704,0.000,0.000,0
1508374121.949,846.685,820.914,847.096,857.583,0.000,0.000,0
1508374121.951,839.488,816.321,844.355,848.947,0.000,0.000,0
1508374121.953,847.028,816.321,842.915,841.819,0.000,0.000,0
1508374121.955,857.240,816.390,842.710,839.488,0.000,0.000,0
1508374121.957,855.390,813.648,846.137,844.560,0.000,0.000,0
1508374121.959,849.221,813.991,846.891,848.947,0.000,0.000,0
1508374121.961,848.741,818.172,845.383,856.349,0.000,0.000,0
1508374121.963,846.685,818.446,844.012,849.221,0.000,0.000,0
1508374121.965,843.464,814.539,843.395,842.778,0.000,0.000,0
1508374121.967,841.476,816.253,844.355,840.928,0.000,0.000,0
1508374121.969,847.782,820.091,846.617,844.972,0.000,0.000,0
1508374121.971,844.355,818.789,847.987,847.645,0.000,0.000,0
1508374121.973,847.096,818.515,846.342,848.604,0.000,0.000,0
1508374121.975,850.935,820.777,846.959,848.056,0.000,0.000,0
1508374121.977,851.757,821.051,847.987,850.935,0.000,0.000,0
1508374121.979,848.878,820.708,846.479,853.471,0.000,0.000,0
1508374121.981,852.100,821.531,843.669,859.913,0.000,0.000,0
1508374121.983,848.399,821.873,843.875,847.850,0.000,0.000,0
1508374121.985,842.298,818.241,845.314,839.146,0.000,0.000,0
1508374121.987,840.311,820.023,845.863,840.242,0.000,0.000,0
1508374121.989,842.710,821.188,843.806,841.956,0.000,0.000,0
1508374121.991,846.822,823.450,841.819,840.859,0.000,0.000,0
1508374121.993,847.782,825.849,843.258,840.791,0.000,0.000,0
1508374121.995,853.471,826.054,844.697,849.153,0.000,0.000,0
1508374121.997,847.987,820.091,842.024,843.943,0.000,0.000,0
1508374121.999,843.190,817.007,842.367,838.323,0.000,0.000,0
1508374122.001,828.453,819.749,843.532,826.328,0.000,0.000,0
1508374122.003,839.831,823.381,846.891,839.009,0.000,0.000,0
1508374122.005,842.367,819.817,844.903,838.460,0.000,0.000,0
1508374122.007,844.629,818.446,843.875,834.485,0.000,0.000,0
1508374122.009,847.508,815.225,844.629,836.335,0.000,0.000,0
1508374122.011,851.209,815.979,845.726,839.900,0.000,0.000,0
1508374122.013,856.418,816.870,844.492,846.822,0.000,0.000,0
1508374122.015,860.256,819.132,842.641,840.928,0.000,0.000,0
1508374122.017,864.026,822.353,841.202,841.819,0.000,0.000,0
1508374122.019,849.153,821.736,843.738,836.610,0.000,0.000,0
1508374122.021,844.492,823.039,844.149,841.682,0.000,0.000,0
1508374122.023,842.093,822.901,846.411,843.806,0.000,0.000,0
1508374122.025,839.214,823.930,849.221,842.024,0.000,0.000,0
1508374122.027,844.423,824.409,850.044,843.532,0.000,0.000,0
1508374122.029,854.636,824.341,846.137,847.576,0.000,0.000,0
1508374122.031,859.776,820.640,844.423,847.302,0.000,0.000,0
1508374122.033,861.216,818.583,841.476,846.891,0.000,0.000,0
1508374122.035,852.785,818.309,841.133,834.553,0.000,0.000,0
1508374122.037,855.732,818.241,843.738,839.762,0.000,0.000,0
1508374122.039,852.100,818.035,844.492,845.177,0.000,0.000,0
1508374122.041,845.520,818.720,844.560,848.673,0.000,0.000,0
1508374122.043,842.573,819.337,848.124,851.140,0.000,0.000,0
1508374122.045,850.181,821.462,847.850,855.938,0.000,0.000,0
1508374122.047,858.474,823.998,847.645,862.107,0.000,0.000,0
1508374122.049,852.305,823.655,848.878,852.854,0.000,0.000,0
1508374122.051,846.685,820.640,848.193,841.682,0.000,0.000,0
1508374122.053,846.617,821.531,847.439,842.298,0.000,0.000,0
1508374122.055,849.153,823.176,844.903,842.573,0.000,0.000,0
1508374122.057,851.689,822.079,843.875,842.093,0.000,0.000,0
1508374122.059,852.237,820.914,847.096,851.277,0.000,0.000,0
1508374122.061,858.885,823.313,847.987,862.175,0.000,0.000,0
1508374122.063,859.022,821.531,847.508,866.699,0.000,0.000,0
1508374122.065,855.458,823.724,845.588,861.696,0.000,0.000,0
1508374122.067,855.047,823.381,845.520,860.393,0.000,0.000,0
1508374122.069,852.991,821.668,846.891,864.437,0.000,0.000,0
1508374122.071,853.059,821.942,845.931,859.228,0.000,0.000,0
1508374122.073,858.406,821.188,849.290,852.031,0.000,0.000,0
1508374122.075,867.796,821.942,845.040,852.031,0.000,0.000,0
1508374122.077,863.409,819.817,844.149,856.624,0.000,0.000,0
1508374122.079,860.530,818.926,845.314,854.636,0.000,0.000,0
1508374122.081,851.346,816.733,843.738,853.745,0.000,0.000,0
1508374122.083,846.479,820.228,846.411,849.153,0.000,0.000,0
1508374122.085,848.604,822.079,849.221,848.536,0.000,0.000,0
1508374122.087,850.455,822.147,847.713,851.757,0.000,0.000,1
1508374122.089,850.455,821.051,847.987,849.564,0.000,0.000,0
1508374122.091,853.813,821.119,846.822,847.028,0.000,0.000,0
1508374122.093,851.552,820.365,844.903,843.052,0.000,0.000,0
1508374122.095,851.414,819.337,840.448,835.993,0.000,0.000,0
1508374122.097,857.789,819.269,842.778,843.943,0.000,0.000,0
1508374122.099,851.757,820.160,847.850,846.822,0.000,0.000,0
1508374122.101,842.161,818.035,847.439,841.956,0.000,0.000,0
1508374122.103,841.065,817.692,848.604,840.516,0.000,0.000,0
1508374122.105,844.081,819.474,848.193,842.367,0.000,0.000,0
1508374122.107,840.379,820.845,846.548,840.174,0.000,0.000,0
1508374122.109,833.594,822.079,844.903,832.566,0.000,0.000,0
1508374122.111,839.077,822.079,845.726,835.787,0.000,0.000,0
1508374122.113,847.645,818.378,843.875,838.940,0.000,0.000,0
1508374122.115,853.882,816.938,843.052,837.432,0.000,0.000,0
1508374122.117,846.548,817.281,843.532,835.376,0.000,0.000,0
1508374122.119,849.632,820.708,844.286,842.641,0.000,0.000,0
1508374122.121,849.290,822.216,845.931,840.585,0.000,0.000,0
1508374122.123,846.000,822.490,848.467,841.133,0.000,0.000,0
1508374122.125,845.177,823.861,849.153,843.464,0.000,0.000,0
1508374122.127,847.919,826.877,848.536,848.399,0.000,0.000,0
1508374122.129,854.362,824.272,848.878,857.377,0.000,0.000,0
1508374122.131,848.810,821.256,846.959,847.645,0.000,0.000,0
1508374122.133,850.181,821.051,846.000,848.810,0.000,0.000,0
1508374122.135,854.979,823.381,844.629,841.819,0.000,0.000,0
1508374122.137,866.425,822.833,845.726,851.620,0.000,0.000,0
1508374122.139,871.223,821.599,847.645,857.789,0.000,0.000,0
1508374122.141,859.776,819.817,847.165,855.732,0.000,0.000,0
1508374122.143,849.358,820.640,846.137,849.838,0.000,0.000,0
1508374122.145,846.822,822.079,844.218,848.193,0.000,0.000,0
1508374122.147,850.866,822.627,847.987,862.244,0.000,0.000,0
1508374122.149,846.891,821.325,849.769,857.515,0.000,0.000,0
1508374122.151,846.274,820.023,846.754,845.451,0.000,0.000,0
1508374122.153,852.305,821.873,846.548,839.351,0.000,0.000,0
1508374122.155,854.910,821.599,845.520,845.246,0.000,0.000,0
1508374122.157,854.225,823.930,844.834,845.314,0.000,0.000,0
1508374122.159,855.458,823.244,847.439,844.149,0.000,0.000,0
1508374122.161,850.935,824.683,847.850,844.834,0.000,0.000,0
1508374122.163,844.560,823.244,845.726,850.798,0.000,0.000,0
1508374122.165,848.193,821.736,845.863,853.950,0.000,0.000,0
1508374122.167,851.552,820.914,846.822,851.483,0.000,0.000,0
1508374122.169,851.620,821.051,847.028,845.520,0.000,0.000,0
1508374122.171,846.068,819.611,845.246,836.130,0.000,0.000,0
1508374122.173,846.000,817.966,845.314,839.283,0.000,0.000,0
1508374122.175,850.523,820.708,844.629,839.694,0.000,0.000,0
1508374122.177,848.536,820.434,844.423,843.121,0.000,0.000,0
1508374122.179,854.773,818.446,846.342,860.530,0.000,0.000,0
1508374122.181,848.947,820.160,845.863,851.689,0.000,0.000,0
1508374122.183,835.856,820.160,846.274,835.444,0.000,0.000,0
1508374122.185,839.420,821.531,845.794,835.650,0.000,0.000,0
1508374122.187,851.072,819.200,845.040,842.710,0.000,0.000,0
1508374122.189,853.059,815.499,846.617,841.270,0.000,0.000,0
1508374122.191,856.075,818.309,845.451,843.601,0.000,0.000,0
1508374122.193,852.374,820.914,844.286,842.024,0.000,0.000,0
