timestamps,TP9,FP1,FP2,TP10,n/a,n/a,Marker0
1510777390.596,836.198,800.352,838.734,834.074,0.000,0.000,0
1510777390.598,837.638,800.214,838.392,836.198,0.000,0.000,0
1510777390.600,830.921,803.299,839.557,826.123,0.000,0.000,0
1510777390.602,818.172,800.694,837.912,797.130,0.000,0.000,0
1510777390.604,805.492,798.569,836.198,779.995,0.000,0.000,0
1510777390.606,800.489,794.251,832.634,775.266,0.000,0.000,0
1510777390.608,810.358,798.844,837.021,789.316,0.000,0.000,0
1510777390.610,819.543,802.956,839.625,805.081,0.000,0.000,0
1510777390.612,827.357,804.601,840.928,816.870,0.000,0.000,0
1510777390.614,835.581,804.121,841.682,829.893,0.000,0.000,0
1510777390.616,842.504,804.121,841.407,840.585,0.000,0.000,0
1510777390.618,834.896,801.996,840.448,838.117,0.000,0.000,0
1510777390.620,826.260,801.722,839.900,820.091,0.000,0.000,0
1510777390.622,813.169,801.242,837.432,794.388,0.000,0.000,0
1510777390.624,796.170,798.638,834.142,777.185,0.000,0.000,0
1510777390.626,792.743,796.513,833.799,780.612,0.000,0.000,0
1510777390.628,800.694,796.376,832.360,790.413,0.000,0.000,0
1510777390.630,810.153,797.473,832.703,803.162,0.000,0.000,0
1510777390.632,826.123,799.049,837.021,816.733,0.000,0.000,0
1510777390.634,843.258,796.239,837.158,820.160,0.000,0.000,0
1510777390.636,843.806,794.457,837.364,827.494,0.000,0.000,0
1510777390.638,833.525,792.332,835.307,826.397,0.000,0.000,0
1510777390.640,822.010,794.526,836.815,819.817,0.000,0.000,0
1510777390.642,808.782,796.376,841.270,812.141,0.000,0.000,0
1510777390.644,802.819,796.308,841.750,803.093,0.000,0.000,0
1510777390.646,803.162,795.074,842.093,801.105,0.000,0.000,0
1510777390.648,806.383,792.538,842.847,800.557,0.000,0.000,0
1510777390.650,811.866,793.086,843.464,804.464,0.000,0.000,0
1510777390.652,813.580,791.030,842.230,813.100,0.000,0.000,0
1510777390.654,820.503,790.893,842.641,823.450,0.000,0.000,0
1510777390.656,819.817,790.824,843.532,828.659,0.000,0.000,0
1510777390.658,823.107,790.961,843.327,817.692,0.000,0.000,0
1510777390.660,814.745,787.192,842.778,808.645,0.000,0.000,0
1510777390.662,806.040,789.179,843.806,806.315,0.000,0.000,0
1510777390.664,798.981,790.756,844.629,797.404,0.000,0.000,0
1510777390.666,803.916,794.594,847.508,794.663,0.000,0.000,0
1510777390.668,808.576,794.800,848.741,787.397,0.000,0.000,0
1510777390.670,815.910,794.868,850.455,793.292,0.000,0.000,0
1510777390.672,821.531,792.058,848.056,805.286,0.000,0.000,0
1510777390.674,822.764,794.594,848.262,825.643,0.000,0.000,0
1510777390.676,821.256,795.348,846.754,835.787,0.000,0.000,0
1510777390.678,824.135,794.251,846.685,837.295,0.000,0.000,0
1510777390.680,825.300,796.239,848.124,825.986,0.000,0.000,0
1510777390.682,816.116,797.199,849.016,812.278,0.000,0.000,0
1510777390.684,806.589,794.868,847.645,794.183,0.000,0.000,0
1510777390.686,798.158,793.497,845.588,785.889,0.000,0.000,0
1510777390.688,794.800,789.865,840.037,783.353,0.000,0.000,0
1510777390.690,801.654,791.784,841.270,793.086,0.000,0.000,0
1510777390.692,813.169,795.142,844.560,807.343,0.000,0.000,0
1510777390.694,824.478,795.485,841.887,819.886,0.000,0.000,0
1510777390.696,826.260,795.759,839.694,832.360,0.000,0.000,0
1510777390.698,826.740,794.526,838.049,833.936,0.000,0.000,0
1510777390.700,824.752,795.828,838.803,826.123,0.000,0.000,0
1510777390.702,808.988,797.747,838.529,796.582,0.000,0.000,0
1510777390.704,799.529,798.501,839.625,780.406,0.000,0.000,0
1510777390.706,793.429,796.513,838.460,778.693,0.000,0.000,0
1510777390.708,802.339,800.214,840.037,789.933,0.000,0.000,0
1510777390.710,819.817,800.009,839.488,801.380,0.000,0.000,0
1510777390.712,828.522,799.049,838.460,811.112,0.000,0.000,0
1510777390.714,823.518,799.049,838.323,823.587,0.000,0.000,0
1510777390.716,827.151,800.009,840.037,834.074,0.000,0.000,0
1510777390.718,828.385,800.214,839.009,818.652,0.000,0.000,0
1510777390.720,823.381,802.271,835.102,805.355,0.000,0.000,0
1510777390.722,809.810,798.775,833.525,792.949,0.000,0.000,0
1510777390.724,802.408,798.432,834.074,787.466,0.000,0.000,0
1510777390.726,800.626,799.529,834.965,788.837,0.000,0.000,0
1510777390.728,805.766,800.557,835.719,793.909,0.000,0.000,0
1510777390.730,806.315,801.517,835.787,801.996,0.000,0.000,0
1510777390.732,814.197,803.162,837.912,814.334,0.000,0.000,0
1510777390.734,824.752,804.738,840.379,831.332,0.000,0.000,0
1510777390.736,826.945,804.738,841.133,844.286,0.000,0.000,0
1510777390.738,823.518,803.162,838.803,839.762,0.000,0.000,0
1510777390.740,823.998,805.492,841.339,825.232,0.000,0.000,0
1510777390.742,811.318,804.875,840.379,800.900,0.000,0.000,0
1510777390.744,807.137,803.779,838.117,781.983,0.000,0.000,0
1510777390.746,809.193,802.613,836.404,779.652,0.000,0.000,0
1510777390.748,811.044,804.944,838.049,791.647,0.000,0.000,0
1510777390.750,812.689,806.109,838.803,806.452,0.000,0.000,0
1510777390.752,820.982,807.754,840.996,818.652,0.000,0.000,0
1510777390.754,831.675,805.835,837.706,815.362,0.000,0.000,0
1510777390.756,841.819,806.452,836.061,821.188,0.000,0.000,0
1510777390.758,837.706,805.835,835.787,824.546,0.000,0.000,0
1510777390.760,825.849,807.068,837.980,819.063,0.000,0.000,0
1510777390.762,821.599,807.137,838.597,810.564,0.000,0.000,0
1510777390.764,812.072,808.165,836.473,799.186,0.000,0.000,0
1510777390.766,807.617,808.371,835.650,797.541,0.000,0.000,0
1510777390.768,808.371,809.330,836.473,795.828,0.000,0.000,0
1510777390.770,813.237,809.673,835.650,792.675,0.000,0.000,0
1510777390.772,812.141,806.040,831.880,798.706,0.000,0.000,0
1510777390.774,823.792,807.206,835.033,819.749,0.000,0.000,0
1510777390.776,837.021,809.193,835.102,832.977,0.000,0.000,0
1510777390.778,844.012,808.645,835.239,837.501,0.000,0.000,0
1510777390.780,838.049,810.221,837.432,829.893,0.000,0.000,0
1510777390.782,822.010,811.935,837.089,818.241,0.000,0.000,0
1510777390.784,801.928,811.661,840.654,798.501,0.000,0.000,0
1510777390.786,796.993,812.552,842.504,789.796,0.000,0.000,0
1510777390.788,802.065,810.358,839.009,787.809,0.000,0.000,0
1510777390.790,812.894,811.249,838.049,798.364,0.000,0.000,0
1510777390.792,822.285,810.770,838.803,812.552,0.000,0.000,0
1510777390.794,840.928,809.125,839.077,825.437,0.000,0.000,0
1510777390.796,846.891,809.262,837.775,838.049,0.000,0.000,0
1510777390.798,840.996,811.455,837.912,840.311,0.000,0.000,0
1510777390.800,837.706,813.374,839.488,832.840,0.000,0.000,0
1510777390.802,828.179,812.552,839.146,806.109,0.000,0.000,0
1510777390.804,814.128,812.963,841.133,789.042,0.000,0.000,0
1510777390.806,801.105,809.810,840.037,779.721,0.000,0.000,0
1510777390.808,805.355,809.742,840.174,789.522,0.000,0.000,0
1510777390.810,814.608,811.112,840.928,802.476,0.000,0.000,0
1510777390.812,826.328,809.742,840.791,817.075,0.000,0.000,0
1510777390.814,834.553,809.742,837.980,826.260,0.000,0.000,0
1510777390.816,840.105,809.262,839.146,838.255,0.000,0.000,0
1510777390.818,840.928,811.044,841.407,841.270,0.000,0.000,0
1510777390.820,831.332,808.439,837.912,816.116,0.000,0.000,0
1510777390.822,817.075,807.137,834.553,798.364,0.000,0.000,0
1510777390.824,803.093,806.657,833.731,788.494,0.000,0.000,0
1510777390.826,801.722,806.040,835.239,788.768,0.000,0.000,0
1510777390.828,804.738,806.863,834.759,792.469,0.000,0.000,0
1510777390.830,809.330,808.439,834.005,801.585,0.000,0.000,0
1510777390.832,818.652,809.879,834.622,807.000,0.000,0.000,0
1510777390.834,835.170,810.701,835.856,812.894,0.000,0.000,0
1510777390.836,842.984,810.838,836.267,820.640,0.000,0.000,0
1510777390.838,837.089,809.056,833.594,823.313,0.000,0.000,0
1510777390.840,826.466,810.221,834.211,822.490,0.000,0.000,0
1510777390.842,815.156,811.181,836.541,816.459,0.000,0.000,0
1510777390.844,805.835,811.866,836.198,802.888,0.000,0.000,0
1510777390.846,807.068,813.443,833.799,796.719,0.000,0.000,0
1510777390.848,809.673,812.072,834.279,797.953,0.000,0.000,0
1510777390.850,816.047,811.866,837.295,802.750,0.000,0.000,0
1510777390.852,824.341,809.193,836.198,802.613,0.000,0.000,0
1510777390.854,829.687,808.919,833.251,811.729,0.000,0.000,0
1510777390.856,831.949,808.508,832.566,827.357,0.000,0.000,0
1510777390.858,832.429,808.439,833.525,832.566,0.000,0.000,0
1510777390.860,828.111,806.931,833.594,826.534,0.000,0.000,0
1510777390.862,818.172,808.028,834.074,813.511,0.000,0.000,0
1510777390.864,811.112,811.866,833.799,803.162,0.000,0.000,0
1510777390.866,805.424,813.648,834.142,795.279,0.000,0.000,0
1510777390.868,806.794,813.032,835.993,788.083,0.000,0.000,0
1510777390.870,816.253,811.866,836.884,785.752,0.000,0.000,0
1510777390.872,820.708,809.879,834.279,793.223,0.000,0.000,0
1510777390.874,826.808,813.032,836.815,814.745,0.000,0.000,0
1510777390.876,838.666,813.032,838.117,829.070,0.000,0.000,0
1510777390.878,844.766,812.689,840.448,831.538,0.000,0.000,0
1510777390.880,837.295,814.402,839.968,825.163,0.000,0.000,0
1510777390.882,832.703,816.390,841.819,814.882,0.000,0.000,0
1510777390.884,819.954,815.705,841.613,789.179,0.000,0.000,0
1510777390.886,810.701,815.293,842.161,782.325,0.000,0.000,0
1510777390.888,802.956,813.854,840.242,785.889,0.000,0.000,0
1510777390.890,806.040,816.184,842.847,799.598,0.000,0.000,0
1510777390.892,816.733,816.664,842.367,814.677,0.000,0.000,0
1510777390.894,828.316,815.156,842.436,826.877,0.000,0.000,0
1510777390.896,839.214,814.060,842.847,842.298,0.000,0.000,0
1510777390.898,835.787,811.661,842.161,844.012,0.000,0.000,0
1510777390.900,825.917,812.209,843.669,835.787,0.000,0.000,0
1510777390.902,822.833,815.156,847.165,823.655,0.000,0.000,0
1510777390.904,812.278,813.648,845.520,791.990,0.000,0.000,0
1510777390.906,806.931,812.415,844.903,784.519,0.000,0.000,0
1510777390.908,799.872,811.524,843.875,789.316,0.000,0.000,0
1510777390.910,797.267,810.975,842.504,799.872,0.000,0.000,0
1510777390.912,814.060,811.181,837.638,812.552,0.000,0.000,0
1510777390.914,823.518,809.604,834.348,819.132,0.000,0.000,0
1510777390.916,829.207,810.290,835.581,830.784,0.000,0.000,0
1510777390.918,828.590,810.770,837.089,827.357,0.000,0.000,0
1510777390.920,826.740,810.084,838.666,814.402,0.000,0.000,0
1510777390.922,816.047,806.246,834.622,797.062,0.000,0.000,0
1510777390.924,809.330,810.290,835.719,788.837,0.000,0.000,0
1510777390.926,799.872,810.016,834.759,784.587,0.000,0.000,0
1510777390.928,797.062,808.988,835.170,789.385,0.000,0.000,0
1510777390.930,803.984,810.358,835.513,800.694,0.000,0.000,0
1510777390.932,813.237,811.935,834.896,809.673,0.000,0.000,0
1510777390.934,823.450,811.935,836.473,820.640,0.000,0.000,0
1510777390.936,830.578,810.975,835.787,819.200,0.000,0.000,0
1510777390.938,829.002,812.003,837.775,821.531,0.000,0.000,3
1510777390.940,821.325,809.193,835.719,812.209,0.000,0.000,0
1510777390.942,820.365,808.371,836.610,807.548,0.000,0.000,0
1510777390.944,813.511,809.125,834.828,796.170,0.000,0.000,0
1510777390.946,802.065,810.290,831.880,783.353,0.000,0.000,0
1510777390.948,804.464,814.677,833.045,786.986,0.000,0.000,0
1510777390.950,805.561,816.253,831.400,783.833,0.000,0.000,0
1510777390.952,806.863,813.923,831.126,793.703,0.000,0.000,0
1510777390.954,816.596,811.866,836.541,806.520,0.000,0.000,0
1510777390.956,824.135,808.713,837.295,812.278,0.000,0.000,0
1510777390.958,823.998,807.206,834.828,805.012,0.000,0.000,0
1510777390.960,813.443,808.165,832.154,797.473,0.000,0.000,0
1510777390.962,804.121,809.193,831.400,790.002,0.000,0.000,0
1510777390.964,800.283,810.838,833.045,789.453,0.000,0.000,0
1510777390.966,790.619,810.633,834.622,786.780,0.000,0.000,0
1510777390.968,789.316,810.633,836.541,780.954,0.000,0.000,0
1510777390.970,804.464,812.072,837.980,786.095,0.000,0.000,0
1510777390.972,812.141,812.346,834.828,794.731,0.000,0.000,0
1510777390.974,827.494,813.923,837.295,813.237,0.000,0.000,0
1510777390.976,833.251,813.511,837.364,828.590,0.000,0.000,0
1510777390.978,830.030,812.483,838.597,830.509,0.000,0.000,0
1510777390.980,826.397,816.801,838.049,824.478,0.000,0.000,0
1510777390.982,828.248,820.434,838.460,817.829,0.000,0.000,0
1510777390.984,822.147,820.640,838.323,804.670,0.000,0.000,0
1510777390.986,813.717,820.297,837.706,785.547,0.000,0.000,0
1510777390.988,809.673,818.446,839.009,780.338,0.000,0.000,0
1510777390.990,815.842,816.664,838.734,789.316,0.000,0.000,0
1510777390.992,818.241,817.761,840.791,804.601,0.000,0.000,0
1510777390.994,824.546,817.281,841.819,823.176,0.000,0.000,0
1510777390.996,840.105,817.007,840.654,835.719,0.000,0.000,0
1510777390.998,842.915,817.075,840.928,833.045,0.000,0.000,0
1510777391.000,827.219,817.144,840.791,820.228,0.000,0.000,0
1510777391.002,812.552,812.415,837.775,804.601,0.000,0.000,0
1510777391.004,803.162,811.935,837.432,796.445,0.000,0.000,0
1510777391.006,801.242,813.306,840.242,798.227,0.000,0.000,0
1510777391.008,803.504,814.265,837.980,800.146,0.000,0.000,0
1510777391.010,806.040,815.293,836.815,801.585,0.000,0.000,0
1510777391.012,815.156,812.346,839.557,812.620,0.000,0.000,0
1510777391.014,827.905,812.620,840.105,824.341,0.000,0.000,0
1510777391.016,839.762,813.032,839.831,839.420,0.000,0.000,0
1510777391.018,842.436,815.088,840.448,847.165,0.000,0.000,0
1510777391.020,831.263,817.487,843.327,841.682,0.000,0.000,0
1510777391.022,816.116,812.278,839.968,806.794,0.000,0.000,0
1510777391.024,803.573,809.125,834.348,781.777,0.000,0.000,0
1510777391.026,808.165,810.496,834.279,781.160,0.000,0.000,0
1510777391.028,813.648,812.003,835.650,786.026,0.000,0.000,0
1510777391.030,821.188,811.249,835.581,791.784,0.000,0.000,0
1510777391.032,824.204,809.947,835.581,791.921,0.000,0.000,0
1510777391.034,819.200,807.822,834.211,798.706,0.000,0.000,0
1510777391.036,823.039,805.835,828.727,809.879,0.000,0.000,0
1510777391.038,829.139,803.916,827.151,820.845,0.000,0.000,0
1510777391.040,823.518,803.230,830.509,825.026,0.000,0.000,0
1510777391.042,803.436,800.763,830.509,811.524,0.000,0.000,0
1510777391.044,798.981,801.448,830.647,797.747,0.000,0.000,0
1510777391.046,795.005,801.448,829.207,790.893,0.000,0.000,0
1510777391.048,791.921,802.682,827.425,791.578,0.000,0.000,0
1510777391.050,791.441,801.722,825.643,792.058,0.000,0.000,0
1510777391.052,799.803,803.093,828.042,802.202,0.000,0.000,0
1510777391.054,804.395,801.448,827.014,797.678,0.000,0.000,0
1510777391.056,815.842,801.722,827.357,809.536,0.000,0.000,0
1510777391.058,821.942,799.872,824.821,813.991,0.000,0.000,0
1510777391.060,822.079,799.323,825.986,812.072,0.000,0.000,0
1510777391.062,811.524,800.214,826.808,800.763,0.000,0.000,0
1510777391.064,794.388,801.517,825.712,788.837,0.000,0.000,0
1510777391.066,787.534,803.162,826.740,783.148,0.000,0.000,0
1510777391.068,795.622,799.803,823.587,769.165,0.000,0.000,0
1510777391.070,805.218,800.009,826.397,776.568,0.000,0.000,0
1510777391.072,805.629,797.884,825.232,784.793,0.000,0.000,0
1510777391.074,811.935,801.928,827.836,804.053,0.000,0.000,0
1510777391.076,823.587,801.380,826.466,819.749,0.000,0.000,0
1510777391.078,826.534,800.557,827.288,826.671,0.000,0.000,0
1510777391.080,818.172,800.420,828.179,823.176,0.000,0.000,0
1510777391.082,816.390,800.146,827.631,804.875,0.000,0.000,0
1510777391.084,807.960,801.722,827.631,794.663,0.000,0.000,0
1510777391.086,800.283,801.928,828.796,778.761,0.000,0.000,0
1510777391.088,803.710,803.162,830.647,775.540,0.000,0.000,0
1510777391.090,801.174,800.900,829.481,779.995,0.000,0.000,0
1510777391.092,809.536,804.053,828.042,796.787,0.000,0.000,0
1510777391.094,820.914,806.452,825.643,812.072,0.000,0.000,0
1510777391.096,832.840,806.452,826.466,821.325,0.000,0.000,0
1510777391.098,836.130,808.371,828.385,821.873,0.000,0.000,0
1510777391.100,825.712,806.657,826.671,807.206,0.000,0.000,0
1510777391.102,816.184,805.561,826.397,793.634,0.000,0.000,0
1510777391.104,803.779,806.109,826.054,784.861,0.000,0.000,0
1510777391.106,797.884,806.177,826.260,780.954,0.000,0.000,0
1510777391.108,798.981,807.068,825.300,781.777,0.000,0.000,0
1510777391.110,799.255,802.888,822.901,782.325,0.000,0.000,0
1510777391.112,808.028,801.928,824.478,792.469,0.000,0.000,0
1510777391.114,819.200,802.065,826.328,806.452,0.000,0.000,0
1510777391.116,825.369,801.996,825.849,820.845,0.000,0.000,0
1510777391.118,829.687,802.339,825.026,823.792,0.000,0.000,0
1510777391.120,827.082,802.750,824.272,808.576,0.000,0.000,0
1510777391.122,815.705,802.888,825.643,789.933,0.000,0.000,0
1510777391.124,798.364,802.408,825.300,774.717,0.000,0.000,0
1510777391.126,793.360,802.134,825.849,770.879,0.000,0.000,0
1510777391.128,799.940,801.037,822.970,772.935,0.000,0.000,0
1510777391.130,801.928,800.352,818.172,777.322,0.000,0.000,0
1510777391.132,803.230,802.339,819.200,787.260,0.000,0.000,0
1510777391.134,808.988,801.654,818.583,788.768,0.000,0.000,0
1510777391.136,816.870,800.831,820.297,805.903,0.000,0.000,0
1510777391.138,821.119,799.118,818.172,812.209,0.000,0.000,0
1510777391.140,817.692,801.722,821.051,814.745,0.000,0.000,0
1510777391.142,810.153,802.750,822.216,800.009,0.000,0.000,0
1510777391.144,808.988,804.875,823.792,787.534,0.000,0.000,0
1510777391.146,802.956,805.835,825.712,781.983,0.000,0.000,0
1510777391.148,802.613,807.754,826.534,781.503,0.000,0.000,0
1510777391.150,802.271,804.944,825.163,784.450,0.000,0.000,0
1510777391.152,814.882,806.040,825.712,788.288,0.000,0.000,0
1510777391.154,823.107,806.726,824.889,791.098,0.000,0.000,0
1510777391.156,824.683,804.258,823.313,805.492,0.000,0.000,0
1510777391.158,833.251,805.903,824.341,818.583,0.000,0.000,0
1510777391.160,830.578,804.395,825.300,820.023,0.000,0.000,0
1510777391.162,814.882,803.230,825.369,808.439,0.000,0.000,0
1510777391.164,802.956,804.944,826.260,800.968,0.000,0.000,0
1510777391.165,792.264,804.190,827.699,792.675,0.000,0.000,0
1510777391.167,790.345,802.271,826.671,786.712,0.000,0.000,0
1510777391.169,797.267,803.641,826.877,791.647,0.000,0.000,0
1510777391.171,807.822,807.274,828.316,800.146,0.000,0.000,0
1510777391.173,816.321,805.972,828.590,809.536,0.000,0.000,0
1510777391.175,822.079,802.339,828.042,819.132,0.000,0.000,0
1510777391.177,822.010,805.835,828.111,827.768,0.000,0.000,0
1510777391.179,828.933,807.548,829.070,825.780,0.000,0.000,0
1510777391.181,826.397,808.028,829.755,813.923,0.000,0.000,0
1510777391.183,810.496,808.508,829.824,800.077,0.000,0.000,0
1510777391.185,800.763,808.371,831.469,789.042,0.000,0.000,0
1510777391.187,791.304,805.218,829.413,774.580,0.000,0.000,0
1510777391.189,791.921,804.601,829.824,778.350,0.000,0.000,0
1510777391.191,799.460,803.916,828.590,789.865,0.000,0.000,0
1510777391.193,811.455,804.944,830.372,808.302,0.000,0.000,0
1510777391.195,820.365,804.738,831.949,826.808,0.000,0.000,0
1510777391.197,820.365,805.629,832.703,826.740,0.000,0.000,0
1510777391.199,820.571,805.835,830.441,811.455,0.000,0.000,0
1510777391.201,808.782,804.464,827.768,795.211,0.000,0.000,0
1510777391.203,795.485,803.847,829.413,788.357,0.000,0.000,0
1510777391.205,799.460,807.548,833.525,786.506,0.000,0.000,0
1510777391.207,803.025,807.548,832.703,789.042,0.000,0.000,0
1510777391.209,804.807,806.794,830.304,791.852,0.000,0.000,0
1510777391.211,813.306,805.766,831.949,802.408,0.000,0.000,0
1510777391.213,818.515,806.109,833.662,816.253,0.000,0.000,0
1510777391.215,827.219,807.960,833.251,824.752,0.000,0.000,0
1510777391.217,836.061,811.866,835.307,830.921,0.000,0.000,0
1510777391.219,831.606,809.536,833.251,818.995,0.000,0.000,0
1510777391.221,820.228,808.576,834.279,805.218,0.000,0.000,0
1510777391.223,808.645,807.617,836.404,796.308,0.000,0.000,0
1510777391.225,799.255,806.109,836.678,792.195,0.000,0.000,0
1510777391.227,799.803,806.726,836.404,791.921,0.000,0.000,0
1510777391.229,802.545,806.520,837.432,795.896,0.000,0.000,0
1510777391.231,813.032,807.960,836.884,804.601,0.000,0.000,0
1510777391.233,824.821,809.947,836.884,815.430,0.000,0.000,0
1510777391.235,828.659,808.851,836.884,819.406,0.000,0.000,0
1510777391.237,828.111,807.274,836.747,825.780,0.000,0.000,0
1510777391.239,823.861,807.685,839.077,827.905,0.000,0.000,0
1510777391.241,815.019,807.822,839.694,815.568,0.000,0.000,0
1510777391.243,810.016,807.891,838.666,804.944,0.000,0.000,0
1510777391.245,817.898,809.262,839.146,798.227,0.000,0.000,0
1510777391.247,806.383,809.467,840.516,800.557,0.000,0.000,0
1510777391.249,801.517,810.496,840.379,804.738,0.000,0.000,0
1510777391.251,804.053,806.246,835.650,801.517,0.000,0.000,0
1510777391.253,811.524,806.931,835.719,814.677,0.000,0.000,0
1510777391.255,819.954,805.492,834.142,827.768,0.000,0.000,0
1510777391.257,834.690,807.137,834.485,838.940,0.000,0.000,0
1510777391.259,833.731,807.548,835.033,836.610,0.000,0.000,0
1510777391.261,822.764,807.960,834.005,825.232,0.000,0.000,0
1510777391.263,807.617,808.919,834.553,808.508,0.000,0.000,0
1510777391.265,802.065,810.701,835.444,796.924,0.000,0.000,0
1510777391.267,798.706,807.960,832.154,783.011,0.000,0.000,0
1510777391.269,799.323,806.863,830.715,782.120,0.000,0.000,0
1510777391.271,804.190,805.355,831.195,791.304,0.000,0.000,0
1510777391.273,819.680,808.371,834.622,812.620,0.000,0.000,0
1510777391.275,824.478,806.863,835.719,828.179,0.000,0.000,0
1510777391.277,837.638,808.097,835.856,838.734,0.000,0.000,0
1510777391.279,841.065,807.891,836.541,834.828,0.000,0.000,0
1510777391.281,829.893,809.536,838.049,821.942,0.000,0.000,0
1510777391.283,816.321,807.685,836.473,791.578,0.000,0.000,0
1510777391.285,802.065,805.492,836.678,778.350,0.000,0.000,0
1510777391.287,793.155,805.286,835.444,777.185,0.000,0.000,0
1510777391.289,800.694,809.536,839.762,794.388,0.000,0.000,0
1510777391.291,812.415,811.318,842.436,804.395,0.000,0.000,0
1510777391.293,820.708,809.879,841.682,814.128,0.000,0.000,0
1510777391.295,833.936,808.028,840.928,825.300,0.000,0.000,0
1510777391.297,840.311,810.221,840.654,830.989,0.000,0.000,0
1510777391.299,829.002,810.084,839.557,822.764,0.000,0.000,0
1510777391.301,812.346,809.330,838.871,809.879,0.000,0.000,0
1510777391.303,806.863,807.617,838.666,800.146,0.000,0.000,0
1510777391.305,806.520,809.947,840.859,798.295,0.000,0.000,0
1510777391.307,807.274,811.866,841.133,801.448,0.000,0.000,0
1510777391.309,804.327,810.153,838.392,801.517,0.000,0.000,0
1510777391.311,800.900,807.960,838.049,807.137,0.000,0.000,0
1510777391.313,814.334,806.246,837.364,815.362,0.000,0.000,0
1510777391.315,833.320,805.218,836.884,826.671,0.000,0.000,0
1510777391.317,837.569,806.177,839.420,834.074,0.000,0.000,0
1510777391.319,826.123,803.779,837.706,819.886,0.000,0.000,0
1510777391.321,817.829,804.053,835.581,806.657,0.000,0.000,0
1510777391.323,810.290,806.246,834.348,797.541,0.000,0.000,0
1510777391.325,798.569,806.520,834.279,793.703,0.000,0.000,0
1510777391.327,802.134,807.822,835.719,797.336,0.000,0.000,0
1510777391.329,811.729,809.262,836.061,803.641,0.000,0.000,0
1510777391.331,820.845,808.439,836.404,809.879,0.000,0.000,0
1510777391.333,825.986,807.960,834.485,807.068,0.000,0.000,0
1510777391.335,827.425,808.028,833.183,817.624,0.000,0.000,0
1510777391.337,831.400,806.657,834.690,829.687,0.000,0.000,0
1510777391.339,832.977,806.177,837.569,832.223,0.000,0.000,0
1510777391.341,823.039,808.028,837.432,822.696,0.000,0.000,0
1510777391.343,810.358,810.358,836.815,810.907,0.000,0.000,0
1510777391.345,804.395,810.358,835.993,801.105,0.000,0.000,0
1510777391.347,804.601,811.798,836.610,800.009,0.000,0.000,0
1510777391.349,808.371,811.249,838.460,805.081,0.000,0.000,0
1510777391.351,807.343,807.754,835.856,793.566,0.000,0.000,0
1510777391.353,811.318,808.028,835.513,796.033,0.000,0.000,0
1510777391.355,822.285,809.262,838.803,812.826,0.000,0.000,0
1510777391.357,836.198,809.810,839.557,824.615,0.000,0.000,0
1510777391.359,828.522,808.234,838.734,815.362,0.000,0.000,0
1510777391.361,813.032,807.068,838.323,802.271,0.000,0.000,0
1510777391.363,804.807,808.371,838.940,789.591,0.000,0.000,0
1510777391.365,805.355,809.399,839.557,781.983,0.000,0.000,0
1510777391.367,808.028,809.193,836.473,778.830,0.000,0.000,0
1510777391.369,809.056,808.851,833.662,781.640,0.000,0.000,0
1510777391.371,817.898,811.044,832.223,793.566,0.000,0.000,0
1510777391.373,835.102,811.935,833.525,812.209,0.000,0.000,0
1510777391.375,844.766,809.056,837.226,833.114,0.000,0.000,0
1510777391.377,840.448,803.025,840.996,845.520,0.000,0.000,0
1510777391.379,821.599,799.666,840.654,839.420,0.000,0.000,0
1510777391.381,801.654,799.186,840.448,817.898,0.000,0.000,0
1510777391.383,784.861,800.146,840.722,795.554,0.000,0.000,0
1510777391.385,774.443,797.953,837.226,774.443,0.000,0.000,0
1510777391.387,779.035,798.432,837.912,776.499,0.000,0.000,0
1510777391.389,782.051,800.557,838.666,788.083,0.000,0.000,0
1510777391.391,787.123,802.134,838.871,792.606,0.000,0.000,0
1510777391.393,788.631,801.380,842.230,795.485,0.000,0.000,0
1510777391.395,796.924,799.118,844.972,801.585,0.000,0.000,0
1510777391.397,794.594,797.541,847.370,806.589,0.000,0.000,0
1510777391.399,780.338,797.130,850.181,796.445,0.000,0.000,0
1510777391.401,766.287,797.130,849.016,778.487,0.000,0.000,0
1510777391.403,759.158,796.582,846.137,766.629,0.000,0.000,0
1510777391.405,762.654,797.610,848.262,768.754,0.000,0.000,0
1510777391.407,764.230,798.227,851.620,774.032,0.000,0.000,0
1510777391.409,756.554,797.610,851.894,771.290,0.000,0.000,0
1510777391.411,755.526,797.884,851.689,773.826,0.000,0.000,0
1510777391.413,762.585,798.021,853.676,784.039,0.000,0.000,0
1510777391.415,769.851,796.856,854.773,792.332,0.000,0.000,0
1510777391.417,775.403,793.909,854.362,783.148,0.000,0.000,0
1510777391.419,769.645,791.852,853.813,779.241,0.000,0.000,0
1510777391.421,755.937,790.619,854.088,774.032,0.000,0.000,0
1510777391.423,759.707,792.949,857.857,771.290,0.000,0.000,0
1510777391.425,757.993,793.018,856.212,760.187,0.000,0.000,0
1510777391.427,749.220,794.046,854.636,760.324,0.000,0.000,0
1510777391.429,754.977,794.868,854.088,770.262,0.000,0.000,0
1510777391.431,769.645,797.336,856.829,782.736,0.000,0.000,0
1510777391.433,780.886,795.485,856.212,785.478,0.000,0.000,0
1510777391.435,789.316,795.622,853.608,792.743,0.000,0.000,0
1510777391.437,794.937,794.868,852.168,803.299,0.000,0.000,0
1510777391.439,801.174,796.513,853.950,812.552,0.000,0.000,0
1510777391.441,796.924,796.033,856.144,806.794,0.000,0.000,0
1510777391.443,788.974,796.582,854.636,794.937,0.000,0.000,0
1510777391.445,779.721,797.473,853.608,785.067,0.000,0.000,0
1510777391.447,774.991,798.775,852.443,787.055,0.000,0.000,0
1510777391.449,783.011,801.654,853.196,789.453,0.000,0.000,0
1510777391.451,795.896,804.327,854.499,793.292,0.000,0.000,0
1510777391.453,797.884,802.476,852.580,793.703,0.000,0.000,0
1510777391.455,801.654,803.710,853.402,806.040,0.000,0.000,0
1510777391.457,807.343,805.286,851.620,812.757,0.000,0.000,0
1510777391.459,814.334,807.480,849.632,810.633,0.000,0.000,0
1510777391.461,815.636,809.604,848.399,806.383,0.000,0.000,0
1510777391.463,801.585,806.794,847.302,792.812,0.000,0.000,0
1510777391.465,790.276,808.165,848.330,779.789,0.000,0.000,0
1510777391.467,788.700,808.234,850.935,766.424,0.000,0.000,0
1510777391.469,788.288,808.302,851.140,769.028,0.000,0.000,0
1510777391.471,790.070,805.972,848.056,783.216,0.000,0.000,0
1510777391.473,803.573,809.467,851.620,798.775,0.000,0.000,0
1510777391.475,817.007,807.891,853.539,813.100,0.000,0.000,0
1510777391.477,825.232,806.520,853.196,825.643,0.000,0.000,0
1510777391.479,827.357,808.302,852.305,828.933,0.000,0.000,0
1510777391.481,824.204,809.467,851.003,821.599,0.000,0.000,0
1510777391.483,810.975,808.576,849.975,804.670,0.000,0.000,0
1510777391.485,795.691,804.601,846.411,789.316,0.000,0.000,0
1510777391.487,797.678,808.782,849.084,791.441,0.000,0.000,0
1510777391.489,797.884,807.274,847.370,783.696,0.000,0.000,0
1510777391.491,807.206,808.302,845.109,785.889,0.000,0.000,0
1510777391.493,818.720,809.262,846.891,803.436,0.000,0.000,0
1510777391.495,822.079,808.234,846.754,820.708,0.000,0.000,0
1510777391.497,828.385,806.863,846.274,833.799,0.000,0.000,0
1510777391.499,839.077,807.891,845.383,833.594,0.000,0.000,0
1510777391.501,837.775,809.262,846.959,825.095,0.000,0.000,0
1510777391.503,821.531,811.455,848.947,798.364,0.000,0.000,0
1510777391.505,806.657,812.620,850.660,779.652,0.000,0.000,0
1510777391.507,798.158,810.564,849.975,787.603,0.000,0.000,0
1510777391.509,798.295,811.181,850.798,800.214,0.000,0.000,0
1510777391.511,808.028,811.112,850.044,813.648,0.000,0.000,0
1510777391.513,822.970,813.648,851.483,822.079,0.000,0.000,0
1510777391.515,830.578,813.991,851.552,831.675,0.000,0.000,0
1510777391.517,836.404,809.193,848.124,839.351,0.000,0.000,0
1510777391.519,841.202,809.742,848.193,837.364,0.000,0.000,0
1510777391.521,832.497,812.072,850.181,829.755,0.000,0.000,0
1510777391.523,821.668,813.923,850.386,814.197,0.000,0.000,0
1510777391.525,804.532,813.991,849.701,803.573,0.000,0.000,0
1510777391.527,807.274,813.991,850.660,807.274,0.000,0.000,0
1510777391.529,825.026,814.608,849.427,813.511,0.000,0.000,0
1510777391.531,830.167,815.910,849.084,823.518,0.000,0.000,0
1510777391.533,835.993,816.253,849.769,835.444,0.000,0.000,0
1510777391.535,844.972,819.543,850.181,841.407,0.000,0.000,0
1510777391.537,843.464,819.063,847.645,836.061,0.000,0.000,0
1510777391.539,841.065,818.104,843.464,833.320,0.000,0.000,0
1510777391.541,836.952,817.213,842.573,826.191,0.000,0.000,0
1510777391.543,827.014,818.789,843.601,817.350,0.000,0.000,0
1510777391.545,815.842,818.241,844.972,808.371,0.000,0.000,0
1510777391.547,814.814,819.132,846.479,810.016,0.000,0.000,0
1510777391.549,813.100,815.979,843.258,800.763,0.000,0.000,0
1510777391.551,818.857,813.580,844.149,805.218,0.000,0.000,0
1510777391.553,831.195,811.592,844.766,818.789,0.000,0.000,0
1510777391.555,851.277,815.430,849.632,846.548,0.000,0.000,0
1510777391.557,865.123,818.035,850.249,869.989,0.000,0.000,0
1510777391.559,865.397,819.680,847.233,872.594,0.000,0.000,0
1510777391.561,846.617,823.518,841.613,852.237,0.000,0.000,0
1510777391.563,824.478,825.026,835.170,821.325,0.000,0.000,0
1510777391.565,810.221,823.518,834.142,796.170,0.000,0.000,0
1510777391.567,804.190,823.655,838.597,793.634,0.000,0.000,0
1510777391.569,795.554,819.611,836.541,783.765,0.000,0.000,0
1510777391.571,812.689,820.434,836.747,789.179,0.000,0.000,0
1510777391.573,823.313,822.764,836.473,805.149,0.000,0.000,0
1510777391.575,826.397,824.821,832.360,819.749,0.000,0.000,0
1510777391.577,832.017,825.986,826.740,828.316,0.000,0.000,0
1510777391.579,828.727,822.490,826.945,827.562,0.000,0.000,0
1510777391.581,824.889,824.889,829.618,822.079,0.000,0.000,0
1510777391.583,813.991,824.135,826.191,793.360,0.000,0.000,0
1510777391.585,810.016,825.986,823.998,775.677,0.000,0.000,0
1510777391.587,797.884,822.490,821.256,769.851,0.000,0.000,0
1510777391.589,803.025,827.631,827.631,782.668,0.000,0.000,0
1510777391.591,813.923,828.796,831.195,798.090,0.000,0.000,0
1510777391.593,826.191,828.316,831.606,813.854,0.000,0.000,0
1510777391.595,837.638,828.659,832.566,827.151,0.000,0.000,0
1510777391.597,847.782,827.631,832.429,834.005,0.000,0.000,0
1510777391.599,849.906,829.207,834.074,831.058,0.000,0.000,0
1510777391.601,841.065,827.357,832.771,817.213,0.000,0.000,0
1510777391.603,829.413,825.780,830.784,806.931,0.000,0.000,0
1510777391.605,818.995,825.849,832.497,793.840,0.000,0.000,0
1510777391.607,812.620,825.575,833.868,794.526,0.000,0.000,0
1510777391.609,814.265,823.861,833.868,802.065,0.000,0.000,0
1510777391.611,822.901,824.204,833.525,817.281,0.000,0.000,0
1510777391.613,831.195,824.272,833.045,821.805,0.000,0.000,0
1510777391.615,840.996,824.615,832.566,824.615,0.000,0.000,0
1510777391.617,853.608,822.079,832.497,825.712,0.000,0.000,0
1510777391.619,854.841,822.079,833.183,832.223,0.000,0.000,0
1510777391.621,847.508,823.107,834.279,828.796,0.000,0.000,0
1510777391.623,839.146,827.014,835.307,816.596,0.000,0.000,0
1510777391.625,827.219,827.494,835.581,792.127,0.000,0.000,0
1510777391.627,823.450,828.385,834.416,780.612,0.000,0.000,0
1510777391.629,826.945,828.179,833.799,785.204,0.000,0.000,0
1510777391.631,831.263,827.768,834.828,798.569,0.000,0.000,0
1510777391.633,835.239,828.864,835.650,807.891,0.000,0.000,0
1510777391.635,837.021,827.357,834.896,813.237,0.000,0.000,0
1510777391.637,839.762,824.135,832.497,820.023,0.000,0.000,0
1510777391.639,844.629,823.861,834.553,829.413,0.000,0.000,0
1510777391.641,845.657,822.559,834.759,825.095,0.000,0.000,0
1510777391.643,838.597,820.434,834.416,811.318,0.000,0.000,0
1510777391.645,820.365,821.599,835.307,796.170,0.000,0.000,0
1510777391.647,808.919,821.805,836.267,791.784,0.000,0.000,0
1510777391.649,821.119,820.228,837.912,792.812,0.000,0.000,0
1510777391.651,831.812,820.982,836.952,795.348,0.000,0.000,0
1510777391.653,835.170,821.051,832.908,805.012,0.000,0.000,0
1510777391.655,840.105,822.147,832.497,822.010,0.000,0.000,0
1510777391.657,848.193,822.559,832.017,834.622,0.000,0.000,0
1510777391.659,849.906,822.353,831.400,837.432,0.000,0.000,0
1510777391.661,851.209,822.559,831.332,827.357,0.000,0.000,0
1510777391.663,844.903,821.462,831.880,811.798,0.000,0.000,0
1510777391.665,825.986,826.397,836.541,799.186,0.000,0.000,0
1510777391.667,808.919,824.821,836.541,784.519,0.000,0.000,0
1510777391.669,804.532,824.478,834.074,784.724,0.000,0.000,0
1510777391.671,808.508,821.805,833.594,794.526,0.000,0.000,0
1510777391.673,829.276,825.437,838.255,813.237,0.000,0.000,0
1510777391.675,839.351,824.683,839.968,824.958,0.000,0.000,0
1510777391.677,839.077,825.163,840.654,838.734,0.000,0.000,0
1510777391.679,841.202,823.998,841.202,845.451,0.000,0.000,0
1510777391.681,839.420,823.381,840.448,841.682,0.000,0.000,0
1510777391.683,830.235,826.260,840.379,821.051,0.000,0.000,0
1510777391.685,815.362,823.724,837.706,793.018,0.000,0.000,0
1510777391.687,808.234,821.531,835.376,786.780,0.000,0.000,0
1510777391.689,817.213,824.272,837.980,796.993,0.000,0.000,0
1510777391.691,828.659,824.204,839.214,805.835,0.000,0.000,0
1510777391.693,840.037,823.518,840.722,818.309,0.000,0.000,0
1510777391.695,844.012,822.970,842.024,831.606,0.000,0.000,0
1510777391.697,849.632,825.026,844.149,837.432,0.000,0.000,0
1510777391.699,852.374,826.397,844.423,834.005,0.000,0.000,0
1510777391.701,843.669,821.873,839.420,823.724,0.000,0.000,0
1510777391.703,831.469,824.135,838.529,812.141,0.000,0.000,0
1510777391.705,828.933,827.562,842.093,804.738,0.000,0.000,0
1510777391.707,823.313,825.917,842.024,798.364,0.000,0.000,0
1510777391.709,817.761,822.422,841.956,797.199,0.000,0.000,0
1510777391.711,824.272,821.462,841.819,805.766,0.000,0.000,0
1510777391.713,830.852,823.998,841.545,823.518,0.000,0.000,0
1510777391.715,843.532,824.821,841.613,841.339,0.000,0.000,0
1510777391.717,857.172,825.026,841.956,852.374,0.000,0.000,0
1510777391.719,850.249,828.659,841.339,849.906,0.000,0.000,0
1510777391.721,834.759,825.437,838.666,826.877,0.000,0.000,0
1510777391.723,826.808,826.123,837.638,814.882,0.000,0.000,0
1510777391.725,819.954,829.824,839.146,810.633,0.000,0.000,0
1510777391.727,817.761,830.441,839.488,807.891,0.000,0.000,0
1510777391.729,821.531,829.824,840.105,810.221,0.000,0.000,0
1510777391.731,821.462,828.248,841.476,811.524,0.000,0.000,0
1510777391.733,821.736,825.643,839.762,818.515,0.000,0.000,0
1510777391.735,834.828,824.821,836.610,822.010,0.000,0.000,0
1510777391.737,850.592,829.413,841.133,830.235,0.000,0.000,0
1510777391.739,846.822,829.413,841.613,835.719,0.000,0.000,0
1510777391.741,844.218,826.671,840.174,831.400,0.000,0.000,0
1510777391.743,827.905,821.873,837.912,812.620,0.000,0.000,0
1510777391.745,818.652,825.437,839.351,798.569,0.000,0.000,0
1510777391.747,814.265,827.425,839.009,789.728,0.000,0.000,0
1510777391.749,814.677,828.111,837.226,794.046,0.000,0.000,0
1510777391.751,821.805,829.070,842.778,809.742,0.000,0.000,0
1510777391.753,829.207,825.506,840.105,804.944,0.000,0.000,0
1510777391.755,832.977,826.397,837.706,816.459,0.000,0.000,0
1510777391.757,845.794,825.575,839.694,833.662,0.000,0.000,0
1510777391.759,847.028,824.409,839.009,842.436,0.000,0.000,0
1510777391.761,835.239,826.054,839.762,835.787,0.000,0.000,0
1510777391.763,827.357,827.151,842.367,816.116,0.000,0.000,0
1510777391.765,822.833,826.054,842.915,795.211,0.000,0.000,0
1510777391.767,812.689,823.244,842.504,785.478,0.000,0.000,0
1510777391.769,810.084,823.244,841.407,788.974,0.000,0.000,0
1510777391.771,822.833,825.849,846.274,802.065,0.000,0.000,0
1510777391.773,832.771,826.054,844.081,808.165,0.000,0.000,0
1510777391.775,836.815,825.163,842.504,815.225,0.000,0.000,0
1510777391.777,838.186,826.191,843.052,829.550,0.000,0.000,0
1510777391.779,842.024,826.328,841.065,834.485,0.000,0.000,0
1510777391.780,841.407,823.930,839.283,828.248,0.000,0.000,0
1510777391.782,834.348,826.877,843.464,813.374,0.000,0.000,0
1510777391.784,816.527,824.272,843.121,788.562,0.000,0.000,0
1510777391.786,809.604,821.119,842.024,778.693,0.000,0.000,0
1510777391.788,813.785,822.559,843.601,788.220,0.000,0.000,0
1510777391.790,820.160,822.901,842.778,795.279,0.000,0.000,0
1510777391.792,828.316,821.119,840.791,808.988,0.000,0.000,0
1510777391.794,833.594,820.914,841.476,819.543,0.000,0.000,0
1510777391.796,837.638,821.531,840.311,834.690,0.000,0.000,0
1510777391.798,836.952,824.546,842.573,843.669,0.000,0.000,0
1510777391.800,838.734,824.683,844.149,826.534,0.000,0.000,0
1510777391.802,828.933,822.559,842.436,805.561,0.000,0.000,0
1510777391.804,815.362,822.079,842.915,791.852,0.000,0.000,0
1510777391.806,815.499,823.518,845.177,792.675,0.000,0.000,0
1510777391.808,821.051,824.341,845.246,798.912,0.000,0.000,0
1510777391.810,827.562,824.683,844.697,809.947,0.000,0.000,0
1510777391.812,826.054,824.683,845.794,820.091,0.000,0.000,0
1510777391.814,833.320,824.546,846.754,821.051,0.000,0.000,0
1510777391.816,843.738,822.833,843.669,824.752,0.000,0.000,0
1510777391.818,846.754,820.640,843.806,829.413,0.000,0.000,0
1510777391.820,847.713,823.518,846.754,831.606,0.000,0.000,0
1510777391.822,837.912,823.861,847.987,820.640,0.000,0.000,0
1510777391.824,823.930,821.736,847.439,800.831,0.000,0.000,0
1510777391.826,808.851,820.777,849.290,791.098,0.000,0.000,0
1510777391.828,819.611,822.147,850.386,798.501,0.000,0.000,0
1510777391.830,837.980,822.559,849.906,811.661,0.000,0.000,0
1510777391.832,844.492,822.490,850.798,819.543,0.000,0.000,0
1510777391.834,841.270,819.611,849.153,818.446,0.000,0.000,0
1510777391.836,840.722,817.829,847.370,828.727,0.000,0.000,0
1510777391.838,846.000,820.297,847.987,840.379,0.000,0.000,0
1510777391.840,846.959,821.599,844.355,835.376,0.000,0.000,0
1510777391.842,839.351,821.393,843.121,819.749,0.000,0.000,0
1510777391.844,829.413,821.325,844.492,803.984,0.000,0.000,0
1510777391.846,823.450,822.627,847.439,797.199,0.000,0.000,0
1510777391.848,823.381,819.886,844.766,786.301,0.000,0.000,0
1510777391.850,827.905,819.063,845.588,789.865,0.000,0.000,0
1510777391.852,824.615,815.293,843.601,799.803,0.000,0.000,0
1510777391.854,837.843,818.995,846.754,819.886,0.000,0.000,0
1510777391.856,849.427,818.789,846.754,838.803,0.000,0.000,0
1510777391.858,846.068,817.966,847.165,848.741,0.000,0.000,0
1510777391.860,839.900,818.104,847.370,845.383,0.000,0.000,0
1510777391.862,821.531,818.104,845.863,830.578,0.000,0.000,0
1510777391.864,809.536,823.244,847.233,816.321,0.000,0.000,0
1510777391.866,809.262,821.531,843.327,788.700,0.000,0.000,0
1510777391.868,811.524,822.627,841.750,785.684,0.000,0.000,0
1510777391.870,808.782,821.873,841.270,791.784,0.000,0.000,0
1510777391.872,811.798,821.873,842.984,804.738,0.000,0.000,0
1510777391.874,826.328,822.559,844.355,818.104,0.000,0.000,0
1510777391.876,837.432,822.490,843.464,833.114,0.000,0.000,0
1510777391.878,834.759,823.724,842.504,836.541,0.000,0.000,0
1510777391.880,828.796,825.712,843.738,825.643,0.000,0.000,0
1510777391.882,823.655,823.313,844.697,803.710,0.000,0.000,0
1510777391.884,811.249,820.160,842.367,787.603,0.000,0.000,0
1510777391.886,805.835,819.817,844.218,780.406,0.000,0.000,0
1510777391.888,811.729,820.845,846.137,787.603,0.000,0.000,0
1510777391.890,820.091,819.474,842.573,797.473,0.000,0.000,0
1510777391.892,827.631,818.720,842.710,812.346,0.000,0.000,0
1510777391.894,832.566,819.406,841.133,823.107,0.000,0.000,0
1510777391.896,838.666,818.720,842.915,832.771,0.000,0.000,0
1510777391.898,838.940,821.325,848.124,840.585,0.000,0.000,0
1510777391.900,825.506,818.515,846.479,823.381,0.000,0.000,0
1510777391.902,815.088,818.241,845.520,806.589,0.000,0.000,0
1510777391.904,814.128,819.132,845.657,792.058,0.000,0.000,0
1510777391.906,809.879,818.652,845.109,782.805,0.000,0.000,0
1510777391.908,800.420,816.733,843.806,787.329,0.000,0.000,0
1510777391.910,799.460,818.515,844.697,797.404,0.000,0.000,0
1510777391.912,808.782,819.200,844.629,810.084,0.000,0.000,0
1510777391.914,824.821,820.365,846.411,814.402,0.000,0.000,0
1510777391.916,838.049,821.188,845.794,825.095,0.000,0.000,0
1510777391.918,840.928,820.365,844.218,831.812,0.000,0.000,0
1510777391.920,832.360,819.200,843.395,826.740,0.000,0.000,0
1510777391.922,824.272,819.132,844.355,813.785,0.000,0.000,0
1510777391.924,815.019,820.640,846.548,799.803,0.000,0.000,0
1510777391.926,807.754,821.325,845.040,790.550,0.000,0.000,0
1510777391.928,811.455,820.023,841.750,788.357,0.000,0.000,0
1510777391.930,812.415,820.091,842.230,794.251,0.000,0.000,0
1510777391.932,820.914,823.518,843.601,805.903,0.000,0.000,0
1510777391.934,834.348,824.478,842.436,812.757,0.000,0.000,0
1510777391.936,851.826,826.877,842.298,831.058,0.000,0.000,0
1510777391.938,864.232,825.300,842.436,846.411,0.000,0.000,0
1510777391.940,852.922,821.736,844.149,847.576,0.000,0.000,0
1510777391.942,825.780,817.761,850.181,832.223,0.000,0.000,0
1510777391.944,814.128,818.378,853.334,811.181,0.000,0.000,0
1510777391.946,811.524,820.160,854.019,795.896,0.000,0.000,0
1510777391.948,809.810,820.640,853.745,785.821,0.000,0.000,0
1510777391.950,815.293,821.256,854.156,787.534,0.000,0.000,0
1510777391.952,820.160,816.321,852.991,794.114,0.000,0.000,0
1510777391.954,826.260,815.019,853.882,812.415,0.000,0.000,0
1510777391.956,827.699,815.156,853.059,832.292,0.000,0.000,0
1510777391.958,820.640,813.923,849.358,838.803,0.000,0.000,0
1510777391.960,820.297,814.951,850.044,830.441,0.000,0.000,0
1510777391.962,810.633,814.814,848.262,805.561,0.000,0.000,0
1510777391.964,797.541,814.951,849.838,792.264,0.000,0.000,0
1510777391.966,790.824,814.677,850.318,771.976,0.000,0.000,0
1510777391.968,790.687,813.237,851.757,770.193,0.000,0.000,0
1510777391.970,792.743,814.951,852.785,775.334,0.000,0.000,0
1510777391.972,796.033,816.047,852.443,781.503,0.000,0.000,0
1510777391.974,800.420,816.047,848.673,791.852,0.000,0.000,0
1510777391.976,815.293,815.019,848.467,811.798,0.000,0.000,0
1510777391.978,823.381,813.854,848.878,824.546,0.000,0.000,0
1510777391.980,819.200,816.664,850.592,828.453,0.000,0.000,0
1510777391.982,814.265,820.297,855.801,816.938,0.000,0.000,0
1510777391.984,804.190,815.979,855.801,786.438,0.000,0.000,0
1510777391.986,796.239,814.814,852.100,770.947,0.000,0.000,0
1510777391.988,791.647,814.128,851.414,777.733,0.000,0.000,0
1510777391.990,793.155,813.100,850.318,789.865,0.000,0.000,0
1510777391.992,808.576,813.511,851.209,808.508,0.000,0.000,0
1510777391.994,816.801,814.608,851.414,827.768,0.000,0.000,0
1510777391.996,823.724,817.144,854.019,839.488,0.000,0.000,0
1510777391.998,823.313,814.197,853.334,838.666,0.000,0.000,0
1510777392.000,822.422,810.427,851.072,835.581,0.000,0.000,0
1510777392.002,810.838,811.661,850.729,820.571,0.000,0.000,0
1510777392.004,798.364,815.499,853.539,810.153,0.000,0.000,0
1510777392.006,796.445,814.197,850.386,795.142,0.000,0.000,0
1510777392.008,805.218,812.415,847.302,793.223,0.000,0.000,0
1510777392.010,807.000,812.689,848.056,800.214,0.000,0.000,0
1510777392.012,808.576,813.306,847.508,808.713,0.000,0.000,0
1510777392.014,811.592,813.169,847.165,820.160,0.000,0.000,0
1510777392.016,819.200,815.979,847.713,834.348,0.000,0.000,0
1510777392.018,830.372,813.511,845.246,829.481,0.000,0.000,0
1510777392.020,833.320,811.935,844.903,826.123,0.000,0.000,0
1510777392.022,826.328,812.689,846.959,818.995,0.000,0.000,0
1510777392.024,807.960,815.156,846.205,803.025,0.000,0.000,0
1510777392.026,801.996,815.705,845.451,789.659,0.000,0.000,0
1510777392.028,802.134,816.596,848.810,791.098,0.000,0.000,0
1510777392.030,799.803,815.636,850.112,792.401,0.000,0.000,0
1510777392.032,811.661,813.785,848.604,800.694,0.000,0.000,0
1510777392.034,832.977,813.100,845.383,815.773,0.000,0.000,0
1510777392.036,847.508,817.624,849.906,841.887,0.000,0.000,0
1510777392.038,845.863,816.390,852.511,853.676,0.000,0.000,0
1510777392.040,837.295,818.172,854.156,846.342,0.000,0.000,0
1510777392.042,828.659,820.777,856.075,830.989,0.000,0.000,0
1510777392.044,820.982,822.010,853.950,812.963,0.000,0.000,0
1510777392.046,816.390,821.805,850.592,797.884,0.000,0.000,0
1510777392.048,820.023,823.313,851.003,802.956,0.000,0.000,0
1510777392.050,814.402,825.780,851.894,804.807,0.000,0.000,0
1510777392.052,812.689,823.518,851.140,805.629,0.000,0.000,0
1510777392.054,823.930,821.942,847.233,819.406,0.000,0.000,0
1510777392.056,840.722,823.244,846.617,843.806,0.000,0.000,0
1510777392.058,848.056,822.833,849.016,858.063,0.000,0.000,0
1510777392.060,839.488,823.724,850.181,852.717,0.000,0.000,0
1510777392.062,840.174,824.341,852.168,839.488,0.000,0.000,0
1510777392.064,828.590,820.845,849.564,810.838,0.000,0.000,0
1510777392.066,817.966,820.708,847.645,797.953,0.000,0.000,0
1510777392.068,808.165,817.761,846.754,797.610,0.000,0.000,0
1510777392.070,815.910,822.010,849.495,810.496,0.000,0.000,0
1510777392.072,818.446,821.188,850.798,825.232,0.000,0.000,0
1510777392.074,820.365,820.228,850.044,840.928,0.000,0.000,0
1510777392.076,824.752,819.611,848.124,860.736,0.000,0.000,0
1510777392.078,828.864,820.708,848.467,875.061,0.000,0.000,0
1510777392.080,829.344,818.995,848.330,870.537,0.000,0.000,0
1510777392.082,822.627,818.515,845.177,850.592,0.000,0.000,0
1510777392.084,814.128,820.228,846.754,824.409,0.000,0.000,0
1510777392.086,808.097,820.708,844.423,796.308,0.000,0.000,0
1510777392.088,812.072,819.337,840.996,794.937,0.000,0.000,0
1510777392.090,820.982,820.571,841.476,810.770,0.000,0.000,0
1510777392.092,832.566,823.724,843.464,825.369,0.000,0.000,0
1510777392.094,837.364,824.272,846.342,842.093,0.000,0.000,0
1510777392.096,835.993,822.970,843.601,846.342,0.000,0.000,0
1510777392.098,836.747,821.668,840.928,848.741,0.000,0.000,0
1510777392.100,830.304,818.172,836.678,837.569,0.000,0.000,0
1510777392.102,826.054,818.652,838.734,829.618,0.000,0.000,0
1510777392.104,822.901,821.393,840.928,821.325,0.000,0.000,0
1510777392.106,813.580,820.297,841.202,806.383,0.000,0.000,0
1510777392.108,813.580,821.119,840.174,799.598,0.000,0.000,0
1510777392.110,815.430,820.023,838.734,804.190,0.000,0.000,0
1510777392.112,823.313,821.051,837.638,811.729,0.000,0.000,0
1510777392.114,830.647,822.353,840.585,822.696,0.000,0.000,0
1510777392.116,831.949,821.119,839.009,825.849,0.000,0.000,0
1510777392.118,835.170,819.817,838.871,834.211,0.000,0.000,0
1510777392.120,830.989,820.160,837.364,833.799,0.000,0.000,0
1510777392.122,830.852,821.119,837.980,824.478,0.000,0.000,0
1510777392.124,826.603,823.381,839.625,812.757,0.000,0.000,0
1510777392.126,820.091,823.244,841.682,801.105,0.000,0.000,0
1510777392.128,822.010,824.067,844.629,798.706,0.000,0.000,0
1510777392.130,817.692,821.188,840.654,788.220,0.000,0.000,0
1510777392.132,824.958,823.176,838.871,796.513,0.000,0.000,0
1510777392.134,822.285,822.079,834.416,807.822,0.000,0.000,0
1510777392.136,832.017,821.325,835.856,830.509,0.000,0.000,0
1510777392.138,844.697,822.079,836.747,843.327,0.000,0.000,0
1510777392.140,837.501,822.353,834.965,841.065,0.000,0.000,0
1510777392.142,821.188,820.982,836.815,827.219,0.000,0.000,0
1510777392.144,810.564,818.857,834.485,803.504,0.000,0.000,0
1510777392.146,807.548,815.979,836.884,787.946,0.000,0.000,0
1510777392.148,805.012,817.555,836.473,785.067,0.000,0.000,0
1510777392.150,812.483,818.035,838.734,790.002,0.000,0.000,0
1510777392.152,825.643,817.692,838.186,791.921,0.000,0.000,0
1510777392.154,831.743,817.829,837.226,807.000,0.000,0.000,0
1510777392.156,834.690,819.063,837.089,828.727,0.000,0.000,0
1510777392.158,836.952,819.063,836.335,843.806,0.000,0.000,0
1510777392.160,834.348,820.571,838.117,843.806,0.000,0.000,0
1510777392.162,827.357,820.777,838.255,827.768,0.000,0.000,0
1510777392.164,818.104,819.543,837.021,796.719,0.000,0.000,0
1510777392.166,808.782,820.845,836.952,779.447,0.000,0.000,0
1510777392.168,804.395,818.035,833.936,777.322,0.000,0.000,0
1510777392.170,813.100,820.640,839.283,790.070,0.000,0.000,0
1510777392.172,816.459,821.325,840.585,804.875,0.000,0.000,0
1510777392.174,824.821,823.861,840.585,824.546,0.000,0.000,0
1510777392.176,832.703,823.792,839.214,838.734,0.000,0.000,0
1510777392.178,837.980,823.518,839.009,845.040,0.000,0.000,0
1510777392.180,834.416,823.861,839.900,844.218,0.000,0.000,0
1510777392.182,825.300,825.095,840.996,824.478,0.000,0.000,0
1510777392.184,816.116,822.627,837.432,797.678,0.000,0.000,0
1510777392.186,806.383,819.406,834.896,777.596,0.000,0.000,0
1510777392.188,803.641,820.503,835.444,778.281,0.000,0.000,0
1510777392.190,801.928,819.680,835.444,791.510,0.000,0.000,0
1510777392.192,810.290,821.805,835.444,806.383,0.000,0.000,0
1510777392.194,816.870,821.873,834.690,816.733,0.000,0.000,0
1510777392.196,831.880,822.353,832.908,827.905,0.000,0.000,0
1510777392.198,835.033,818.446,828.316,822.696,0.000,0.000,0
1510777392.200,830.715,818.309,828.042,818.720,0.000,0.000,0
1510777392.202,816.321,816.596,826.808,806.657,0.000,0.000,0
1510777392.204,807.754,820.571,829.413,792.469,0.000,0.000,0
1510777392.206,800.420,821.805,826.397,776.019,0.000,0.000,0
1510777392.208,810.016,825.163,824.821,778.967,0.000,0.000,0
1510777392.210,830.167,824.889,825.643,792.812,0.000,0.000,0
1510777392.212,840.448,822.970,827.631,811.798,0.000,0.000,0
1510777392.214,838.803,820.023,832.360,827.836,0.000,0.000,0
1510777392.216,838.871,815.568,835.581,827.219,0.000,0.000,0
1510777392.218,835.033,813.237,834.142,829.002,0.000,0.000,0
1510777392.220,831.812,813.306,832.634,825.780,0.000,0.000,0
1510777392.222,829.207,815.225,833.799,818.241,0.000,0.000,0
1510777392.224,815.773,813.169,834.553,797.953,0.000,0.000,0
1510777392.226,801.037,811.524,835.102,781.160,0.000,0.000,0
1510777392.228,801.105,813.374,835.581,777.185,0.000,0.000,0
1510777392.230,807.137,812.278,835.239,777.185,0.000,0.000,0
1510777392.232,810.496,810.084,833.868,784.724,0.000,0.000,0
1510777392.234,815.705,810.701,837.089,808.851,0.000,0.000,0
1510777392.236,817.487,811.935,840.585,831.812,0.000,0.000,0
1510777392.238,823.176,812.415,843.190,843.669,0.000,0.000,0
1510777392.240,819.200,810.701,841.887,841.613,0.000,0.000,0
1510777392.242,808.097,810.907,839.351,824.067,0.000,0.000,0
1510777392.244,802.888,811.661,838.117,801.928,0.000,0.000,0
1510777392.246,803.367,814.677,840.174,785.547,0.000,0.000,0
1510777392.248,806.315,817.624,841.956,789.591,0.000,0.000,0
1510777392.250,806.863,813.511,837.706,790.824,0.000,0.000,0
1510777392.252,812.346,812.278,837.501,797.953,0.000,0.000,0
1510777392.254,817.555,810.290,835.719,807.960,0.000,0.000,0
1510777392.256,818.378,813.580,837.158,831.606,0.000,0.000,0
1510777392.258,819.200,815.568,837.638,850.318,0.000,0.000,0
1510777392.260,820.845,815.430,839.009,849.153,0.000,0.000,0
1510777392.262,817.487,814.471,837.980,830.304,0.000,0.000,0
1510777392.264,810.221,816.596,839.900,801.791,0.000,0.000,0
1510777392.266,803.573,813.443,840.996,767.452,0.000,0.000,0
1510777392.268,806.863,812.689,839.420,763.271,0.000,0.000,0
1510777392.270,812.620,815.705,838.392,772.729,0.000,0.000,0
1510777392.272,813.785,816.527,836.061,788.494,0.000,0.000,0
1510777392.274,817.966,817.144,838.597,809.810,0.000,0.000,0
1510777392.276,823.655,814.745,840.516,834.416,0.000,0.000,0
1510777392.278,833.868,814.951,842.436,852.648,0.000,0.000,0
1510777392.280,837.843,818.995,844.560,850.798,0.000,0.000,0
1510777392.282,827.014,815.499,840.379,821.736,0.000,0.000,0
1510777392.284,817.555,814.608,839.283,803.093,0.000,0.000,0
1510777392.286,811.455,815.362,836.952,788.425,0.000,0.000,0
1510777392.288,813.717,814.128,837.089,786.712,0.000,0.000,0
1510777392.290,817.075,811.249,836.884,790.139,0.000,0.000,0
1510777392.292,815.842,809.879,834.828,798.775,0.000,0.000,0
1510777392.294,818.241,810.016,832.360,815.979,0.000,0.000,0
1510777392.296,824.752,810.907,830.989,834.074,0.000,0.000,0
1510777392.298,833.251,813.100,832.154,846.548,0.000,0.000,0
1510777392.300,832.977,812.483,833.868,845.726,0.000,0.000,0
1510777392.302,825.300,808.234,835.033,832.223,0.000,0.000,0
1510777392.304,820.571,812.689,836.061,815.088,0.000,0.000,0
1510777392.306,814.471,813.374,835.376,790.824,0.000,0.000,0
1510777392.308,816.047,813.443,833.320,779.926,0.000,0.000,0
1510777392.310,823.381,813.785,833.594,784.724,0.000,0.000,0
1510777392.312,823.587,811.592,832.908,799.118,0.000,0.000,0
1510777392.314,828.864,811.524,831.606,814.197,0.000,0.000,0
1510777392.316,836.198,813.785,831.606,832.840,0.000,0.000,0
1510777392.318,836.815,809.193,827.288,825.437,0.000,0.000,0
1510777392.320,841.270,804.807,823.381,824.067,0.000,0.000,0
1510777392.322,834.690,802.888,823.655,814.882,0.000,0.000,0
1510777392.324,819.406,802.339,823.381,798.432,0.000,0.000,0
1510777392.326,805.766,801.791,822.422,780.200,0.000,0.000,0
1510777392.328,807.960,803.162,822.079,773.963,0.000,0.000,0
1510777392.330,813.854,802.545,822.353,770.399,0.000,0.000,0
1510777392.332,817.555,803.641,822.216,782.257,0.000,0.000,0
1510777392.334,817.761,802.408,820.091,803.093,0.000,0.000,0
1510777392.336,821.599,802.065,821.393,826.740,0.000,0.000,0
1510777392.338,821.873,801.791,821.119,839.762,0.000,0.000,0
1510777392.340,815.293,800.077,820.571,835.513,0.000,0.000,0
1510777392.342,803.025,797.473,820.297,819.269,0.000,0.000,0
1510777392.344,794.320,799.460,821.188,799.598,0.000,0.000,0
1510777392.346,791.852,800.214,820.228,778.898,0.000,0.000,0
1510777392.348,800.694,801.859,820.777,769.577,0.000,0.000,0
1510777392.350,801.722,803.847,821.119,766.904,0.000,0.000,0
1510777392.352,802.065,801.380,819.543,777.253,0.000,0.000,0
1510777392.354,809.947,802.339,819.680,798.775,0.000,0.000,0
1510777392.356,811.181,801.311,816.938,817.624,0.000,0.000,0
1510777392.358,814.608,800.146,817.761,830.578,0.000,0.000,0
1510777392.360,821.873,800.831,817.898,838.460,0.000,0.000,0
1510777392.362,817.761,802.476,820.160,827.288,0.000,0.000,0
1510777392.364,804.395,800.557,816.047,792.127,0.000,0.000,0
1510777392.366,791.715,800.352,815.636,767.178,0.000,0.000,0
1510777392.368,787.877,796.650,815.842,764.025,0.000,0.000,0
1510777392.370,796.513,798.364,818.104,774.032,0.000,0.000,0
1510777392.372,806.589,798.569,818.720,788.494,0.000,0.000,0
1510777392.374,813.443,797.336,817.075,805.081,0.000,0.000,0
1510777392.376,825.575,799.666,817.350,823.998,0.000,0.000,0
1510777392.378,830.784,800.214,815.636,840.105,0.000,0.000,0
1510777392.380,824.683,802.134,816.801,847.439,0.000,0.000,0
1510777392.382,807.274,796.787,811.249,810.496,0.000,0.000,0
1510777392.384,801.791,796.239,808.234,781.777,0.000,0.000,0
1510777392.386,796.924,799.666,809.330,762.448,0.000,0.000,0
1510777392.388,795.896,796.993,810.358,756.485,0.000,0.000,0
1510777392.390,801.380,798.432,813.648,760.049,0.000,0.000,0
1510777392.392,805.972,801.174,815.430,775.471,0.000,0.000,0
1510777392.394,810.427,798.364,813.991,792.881,0.000,0.000,0
1510777392.395,821.325,797.884,817.007,816.527,0.000,0.000,0
1510777392.397,824.478,793.909,819.337,831.058,0.000,0.000,0
1510777392.399,831.743,798.227,823.107,840.311,0.000,0.000,0
1510777392.401,822.285,796.787,823.107,823.244,0.000,0.000,0
1510777392.403,806.040,793.977,822.901,798.432,0.000,0.000,0
1510777392.405,798.295,793.018,824.067,779.858,0.000,0.000,0
1510777392.407,796.513,792.743,823.998,778.418,0.000,0.000,0
1510777392.409,799.049,790.824,824.478,782.599,0.000,0.000,0
1510777392.411,800.694,790.756,827.425,794.937,0.000,0.000,0
1510777392.413,808.302,790.345,828.111,791.373,0.000,0.000,0
1510777392.415,817.555,790.139,827.836,796.376,0.000,0.000,0
1510777392.417,823.176,790.345,829.139,814.814,0.000,0.000,0
1510777392.419,819.406,788.151,830.167,822.627,0.000,0.000,0
1510777392.421,814.882,788.014,831.538,814.814,0.000,0.000,0
1510777392.423,813.648,789.111,833.045,793.497,0.000,0.000,0
1510777392.425,806.040,792.264,836.473,780.063,0.000,0.000,0
1510777392.427,800.900,797.336,840.174,781.229,0.000,0.000,0
1510777392.429,803.230,797.062,840.242,775.540,0.000,0.000,0
1510777392.431,810.770,797.473,841.545,780.200,0.000,0.000,0
1510777392.433,819.063,797.130,841.819,790.961,0.000,0.000,0
1510777392.435,828.453,799.666,845.314,811.455,0.000,0.000,0
1510777392.437,831.606,800.831,846.068,837.706,0.000,0.000,0
1510777392.439,832.223,799.598,847.645,853.539,0.000,0.000,0
1510777392.441,830.647,798.912,848.604,833.799,0.000,0.000,0
1510777392.443,817.555,800.900,848.262,809.193,0.000,0.000,0
1510777392.445,804.738,802.476,848.810,789.865,0.000,0.000,0
1510777392.447,805.492,804.121,849.838,784.107,0.000,0.000,0
1510777392.449,810.907,801.448,847.645,774.100,0.000,0.000,0
1510777392.451,820.777,800.214,847.165,779.035,0.000,0.000,0
1510777392.453,815.430,796.308,845.520,793.292,0.000,0.000,0
1510777392.455,814.539,795.211,844.903,814.265,0.000,0.000,0
1510777392.457,819.269,795.622,843.806,837.843,0.000,0.000,0
1510777392.459,826.808,798.158,841.613,847.370,0.000,0.000,0
1510777392.461,829.755,800.077,844.423,836.198,0.000,0.000,0
1510777392.463,819.269,799.460,840.037,804.944,0.000,0.000,0
1510777392.465,814.951,799.460,839.831,776.431,0.000,0.000,0
1510777392.467,811.249,795.896,838.049,767.246,0.000,0.000,0
1510777392.469,819.063,797.610,839.283,775.540,0.000,0.000,0
1510777392.471,817.418,795.417,836.747,787.192,0.000,0.000,0
1510777392.473,815.842,793.840,836.952,805.835,0.000,0.000,0
1510777392.475,822.285,794.183,835.787,826.123,0.000,0.000,0
1510777392.477,829.550,793.840,832.360,844.012,0.000,0.000,0
1510777392.479,823.587,793.429,829.276,842.093,0.000,0.000,0
1510777392.481,820.023,796.719,829.618,817.829,0.000,0.000,0
1510777392.483,811.729,797.884,833.114,787.466,0.000,0.000,0
1510777392.485,804.327,797.336,833.045,763.819,0.000,0.000,0
1510777392.487,805.149,797.747,835.033,762.723,0.000,0.000,0
1510777392.489,809.947,798.912,836.678,775.403,0.000,0.000,0
1510777392.491,812.141,798.021,834.485,785.067,0.000,0.000,0
1510777392.493,822.833,801.174,836.198,799.666,0.000,0.000,0
1510777392.495,829.344,799.186,837.364,815.225,0.000,0.000,0
1510777392.497,834.553,798.706,835.376,835.307,0.000,0.000,0
1510777392.499,832.977,798.432,834.005,840.174,0.000,0.000,0
1510777392.501,832.154,800.489,836.335,832.429,0.000,0.000,0
1510777392.503,825.712,798.844,836.130,813.032,0.000,0.000,0
1510777392.505,820.365,797.815,835.513,789.248,0.000,0.000,0
1510777392.507,812.894,797.541,835.650,781.983,0.000,0.000,0
1510777392.509,802.134,797.678,834.553,778.350,0.000,0.000,0
1510777392.511,807.000,795.074,831.332,789.796,0.000,0.000,0
1510777392.513,816.047,794.937,831.812,805.972,0.000,0.000,0
1510777392.515,830.372,796.650,831.743,821.531,0.000,0.000,0
1510777392.517,838.460,795.965,831.400,838.392,0.000,0.000,0
1510777392.519,842.024,800.557,836.061,841.407,0.000,0.000,0
1510777392.521,837.843,801.105,835.376,823.313,0.000,0.000,0
1510777392.523,823.450,801.311,835.444,802.682,0.000,0.000,0
1510777392.525,814.677,802.065,836.335,783.079,0.000,0.000,0
1510777392.527,814.197,804.395,838.529,775.128,0.000,0.000,0
1510777392.529,813.785,798.844,836.678,769.851,0.000,0.000,0
1510777392.531,812.757,796.170,834.896,779.515,0.000,0.000,0
1510777392.533,811.044,796.582,831.538,797.473,0.000,0.000,0
1510777392.535,822.285,798.227,833.457,827.768,0.000,0.000,0
1510777392.537,833.868,797.815,834.005,849.701,0.000,0.000,0
1510777392.539,832.360,797.884,835.513,849.975,0.000,0.000,0
1510777392.541,822.079,797.884,837.226,837.021,0.000,0.000,0
1510777392.543,812.620,797.541,838.871,810.427,0.000,0.000,0
1510777392.545,804.738,798.158,838.871,782.188,0.000,0.000,0
1510777392.547,800.831,799.186,839.214,769.165,0.000,0.000,0
1510777392.549,796.376,797.404,837.912,757.102,0.000,0.000,0
1510777392.551,805.286,798.090,835.239,768.069,0.000,0.000,0
1510777392.553,814.951,799.049,836.815,793.018,0.000,0.000,0
1510777392.555,818.789,800.557,837.912,813.580,0.000,0.000,0
1510777392.557,815.156,798.227,837.089,835.787,0.000,0.000,0
1510777392.559,824.272,797.678,838.049,842.093,0.000,0.000,0
1510777392.561,821.531,798.090,837.843,822.970,0.000,0.000,0
1510777392.563,812.620,799.940,835.444,773.552,0.000,0.000,0
1510777392.565,804.464,800.420,836.473,747.095,0.000,0.000,0
1510777392.567,796.376,799.255,835.170,747.986,0.000,0.000,0
1510777392.569,799.940,803.436,840.379,776.088,0.000,0.000,0
1510777392.571,805.698,799.735,843.738,788.768,0.000,0.000,0
1510777392.573,812.415,800.900,843.121,799.803,0.000,0.000,0
1510777392.575,822.147,800.214,839.900,822.216,0.000,0.000,0
1510777392.577,829.893,802.682,837.021,836.130,0.000,0.000,0
1510777392.579,826.123,802.613,837.980,817.624,0.000,0.000,0
1510777392.581,815.156,798.844,838.323,798.706,0.000,0.000,0
1510777392.583,810.358,796.719,834.690,773.895,0.000,0.000,0
1510777392.585,804.395,798.090,836.473,768.137,0.000,0.000,0
1510777392.587,804.395,798.912,838.117,775.403,0.000,0.000,0
1510777392.589,801.859,799.049,836.952,776.362,0.000,0.000,0
1510777392.591,796.170,796.787,836.335,784.998,0.000,0.000,0
1510777392.593,806.177,793.223,834.485,791.510,0.000,0.000,0
1510777392.595,815.773,793.497,835.376,815.225,0.000,0.000,0
1510777392.597,819.200,796.856,841.065,836.198,0.000,0.000,0
1510777392.599,818.104,793.497,842.298,827.151,0.000,0.000,0
1510777392.601,818.652,794.251,838.460,806.589,0.000,0.000,0
1510777392.603,812.826,794.526,836.884,793.703,0.000,0.000,0
1510777392.605,802.134,792.812,837.638,774.717,0.000,0.000,0
1510777392.607,795.074,791.784,839.557,766.218,0.000,0.000,0
1510777392.609,793.497,791.852,839.694,773.141,0.000,0.000,0
1510777392.611,803.162,796.993,838.803,780.817,0.000,0.000,0
1510777392.613,805.561,796.513,835.581,790.961,0.000,0.000,0
1510777392.615,814.197,793.086,836.610,803.847,0.000,0.000,0
1510777392.617,812.894,791.647,835.787,832.086,0.000,0.000,0
1510777392.619,821.668,793.497,838.255,842.504,0.000,0.000,0
1510777392.621,816.184,793.086,839.077,829.070,0.000,0.000,0
1510777392.623,811.044,793.634,836.267,815.979,0.000,0.000,0
1510777392.625,803.299,792.332,837.432,794.663,0.000,0.000,0
1510777392.627,797.473,789.042,837.638,792.743,0.000,0.000,0
1510777392.629,802.271,789.728,837.569,792.127,0.000,0.000,0
1510777392.631,796.719,789.933,832.086,775.403,0.000,0.000,0
1510777392.633,799.049,793.566,831.538,776.705,0.000,0.000,0
1510777392.635,804.121,795.622,832.566,790.413,0.000,0.000,0
1510777392.637,812.483,793.772,835.513,813.580,0.000,0.000,0
1510777392.639,819.063,791.236,837.089,826.603,0.000,0.000,0
1510777392.641,818.378,792.949,838.803,817.213,0.000,0.000,0
1510777392.643,814.197,796.033,838.666,799.255,0.000,0.000,0
1510777392.645,805.081,796.856,836.610,773.072,0.000,0.000,0
1510777392.647,805.218,797.199,835.993,759.912,0.000,0.000,0
1510777392.649,807.480,796.787,835.581,763.682,0.000,0.000,0
1510777392.651,805.012,795.759,833.114,764.984,0.000,0.000,0
1510777392.653,803.299,796.513,835.650,779.926,0.000,0.000,0
1510777392.655,807.891,799.598,831.880,801.242,0.000,0.000,0
1510777392.657,820.640,800.420,832.566,837.364,0.000,0.000,0
1510777392.659,820.365,796.924,834.074,854.499,0.000,0.000,0
1510777392.661,813.374,795.759,833.868,846.959,0.000,0.000,0
1510777392.663,808.576,798.227,835.924,825.369,0.000,0.000,0
1510777392.665,790.002,795.005,833.251,782.805,0.000,0.000,0
1510777392.667,786.780,794.594,828.316,768.823,0.000,0.000,0
1510777392.669,797.130,795.759,829.550,781.229,0.000,0.000,0
1510777392.671,803.779,795.142,833.525,797.336,0.000,0.000,0
1510777392.673,817.213,796.993,832.497,814.745,0.000,0.000,0
1510777392.675,820.914,796.993,831.332,835.239,0.000,0.000,0
1510777392.677,817.898,797.130,832.223,852.237,0.000,0.000,0
1510777392.679,818.378,800.077,828.590,855.732,0.000,0.000,0
1510777392.681,817.898,800.009,827.562,836.815,0.000,0.000,0
1510777392.683,804.944,794.183,825.437,806.109,0.000,0.000,0
1510777392.685,803.436,795.554,825.095,784.998,0.000,0.000,0
1510777392.687,802.956,799.118,827.357,779.515,0.000,0.000,0
1510777392.689,800.077,796.376,826.054,780.749,0.000,0.000,0
1510777392.691,803.436,793.497,824.615,791.167,0.000,0.000,0
1510777392.693,817.692,793.977,823.039,803.916,0.000,0.000,0
1510777392.695,814.814,795.417,828.864,818.241,0.000,0.000,0
1510777392.697,807.754,793.566,825.369,820.708,0.000,0.000,0
1510777392.699,807.068,792.401,821.462,823.998,0.000,0.000,0
1510777392.701,803.093,791.510,820.503,817.829,0.000,0.000,0
1510777392.703,796.993,793.360,817.075,795.691,0.000,0.000,0
1510777392.705,784.656,786.301,817.007,781.091,0.000,0.000,0
1510777392.707,783.011,785.272,816.527,767.657,0.000,0.000,0
1510777392.709,783.490,782.394,816.801,762.311,0.000,0.000,0
1510777392.711,784.724,782.668,820.023,776.911,0.000,0.000,0
1510777392.713,797.130,784.519,821.325,807.000,0.000,0.000,0
1510777392.715,801.037,783.422,813.923,805.424,0.000,0.000,0
1510777392.717,795.074,782.462,813.511,819.200,0.000,0.000,0
1510777392.719,796.033,782.668,814.128,826.740,0.000,0.000,0
1510777392.721,807.891,782.805,812.894,822.147,0.000,0.000,0
1510777392.723,805.766,783.422,812.552,799.323,0.000,0.000,0
1510777392.725,788.425,780.749,813.306,774.923,0.000,0.000,0
1510777392.727,776.705,780.200,813.237,760.461,0.000,0.000,0
1510777392.729,776.636,782.051,812.278,754.224,0.000,0.000,0
1510777392.731,780.338,780.406,810.427,756.760,0.000,0.000,0
1510777392.733,785.547,776.157,806.726,763.545,0.000,0.000,0
1510777392.735,798.021,778.624,806.726,784.519,0.000,0.000,0
1510777392.737,806.863,778.830,803.162,812.963,0.000,0.000,0
1510777392.739,800.694,777.048,801.722,824.067,0.000,0.000,0
1510777392.741,795.005,775.677,798.501,812.483,0.000,0.000,0
1510777392.743,788.494,775.060,795.554,790.482,0.000,0.000,0
1510777392.745,780.886,778.624,794.457,764.573,0.000,0.000,0
1510777392.747,766.355,774.032,793.429,747.506,0.000,0.000,0
1510777392.749,761.694,769.714,789.933,742.434,0.000,0.000,0
1510777392.751,774.375,770.879,788.220,750.111,0.000,0.000,0
1510777392.753,783.559,774.923,787.329,770.468,0.000,0.000,0
1510777392.755,783.079,774.443,789.248,787.329,0.000,0.000,0
1510777392.757,789.248,773.141,788.768,804.327,0.000,0.000,0
1510777392.759,791.167,771.976,787.740,811.798,0.000,0.000,0
1510777392.761,787.055,771.564,787.877,804.738,0.000,0.000,0
1510777392.763,774.717,773.072,790.139,777.802,0.000,0.000,0
1510777392.765,766.835,773.004,791.236,750.934,0.000,0.000,0
1510777392.767,756.348,768.960,790.207,731.674,0.000,0.000,0
1510777392.769,761.900,771.427,794.046,739.487,0.000,0.000,0
1510777392.771,764.162,771.976,794.046,755.594,0.000,0.000,0
1510777392.773,773.209,773.826,793.909,775.060,0.000,0.000,0
1510777392.775,778.830,774.512,793.703,788.083,0.000,0.000,0
1510777392.777,781.708,775.197,792.812,801.996,0.000,0.000,0
1510777392.779,782.051,778.830,795.211,811.935,0.000,0.000,0
1510777392.781,778.007,780.132,796.239,798.158,0.000,0.000,0
1510777392.783,767.452,776.019,795.074,779.789,0.000,0.000,0
1510777392.785,767.383,778.007,800.626,769.234,0.000,0.000,0
1510777392.787,766.904,778.830,801.859,751.893,0.000,0.000,0
1510777392.789,775.128,779.721,799.460,737.020,0.000,0.000,0
1510777392.791,791.236,779.104,801.037,747.712,0.000,0.000,0
1510777392.793,792.332,778.418,801.722,763.065,0.000,0.000,0
1510777392.795,788.768,782.120,804.601,772.318,0.000,0.000,0
1510777392.797,785.684,780.749,807.343,784.244,0.000,0.000,0
1510777392.799,783.628,777.939,808.988,792.195,0.000,0.000,0
1510777392.801,776.088,778.007,811.729,794.937,0.000,0.000,0
1510777392.803,771.839,779.447,811.318,779.995,0.000,0.000,0
1510777392.805,764.710,778.830,808.713,757.171,0.000,0.000,0
1510777392.807,765.396,779.104,804.670,739.898,0.000,0.000,0
1510777392.809,762.243,778.281,803.436,731.194,0.000,0.000,0
1510777392.811,760.872,778.213,808.302,742.846,0.000,0.000,0
1510777392.813,764.847,777.048,811.112,759.570,0.000,0.000,0
1510777392.815,769.165,776.157,810.770,764.642,0.000,0.000,0
1510777392.817,775.403,775.334,805.903,771.153,0.000,0.000,0
1510777392.819,780.886,778.350,807.068,790.550,0.000,0.000,0
1510777392.821,776.225,777.459,806.863,785.478,0.000,0.000,0
1510777392.823,764.025,773.689,806.726,770.605,0.000,0.000,0
1510777392.825,757.034,773.278,804.601,748.946,0.000,0.000,0
1510777392.827,752.784,772.798,799.049,737.431,0.000,0.000,0
1510777392.829,758.884,772.935,796.170,736.540,0.000,0.000,0
1510777392.831,754.155,771.016,798.227,738.322,0.000,0.000,0
1510777392.833,756.760,764.505,796.376,732.359,0.000,0.000,0
1510777392.835,769.028,764.984,797.404,745.519,0.000,0.000,0
1510777392.837,777.116,768.343,799.598,774.375,0.000,0.000,0
1510777392.839,772.044,770.536,801.928,792.675,0.000,0.000,0
1510777392.841,755.663,768.137,802.545,792.606,0.000,0.000,0
1510777392.843,748.123,767.726,799.255,768.823,0.000,0.000,0
1510777392.845,741.132,769.714,799.049,737.637,0.000,0.000,0
1510777392.847,740.036,767.383,798.295,711.934,0.000,0.000,0
1510777392.849,738.733,765.053,795.211,704.189,0.000,0.000,0
1510777392.851,743.257,764.642,796.719,717.006,0.000,0.000,0
1510777392.853,757.034,765.533,798.844,740.584,0.000,0.000,0
1510777392.855,764.093,763.751,797.336,758.473,0.000,0.000,0
1510777392.857,763.477,764.162,798.706,784.176,0.000,0.000,0
1510777392.859,760.392,765.396,798.912,799.803,0.000,0.000,0
1510777392.861,756.760,769.234,800.420,795.348,0.000,0.000,0
1510777392.863,756.074,769.508,804.944,762.860,0.000,0.000,0
1510777392.865,752.099,772.592,805.012,726.944,0.000,0.000,0
1510777392.867,745.999,771.701,800.077,710.974,0.000,0.000,0
1510777392.869,753.195,772.661,800.763,718.514,0.000,0.000,0
1510777392.871,765.670,772.387,803.299,730.234,0.000,0.000,0
1510777392.873,768.960,773.072,805.698,747.712,0.000,0.000,0
1510777392.875,771.976,773.689,805.286,767.589,0.000,0.000,0
1510777392.877,778.007,771.976,806.657,787.946,0.000,0.000,0
1510777392.879,779.584,770.879,807.891,790.139,0.000,0.000,0
1510777392.881,770.810,768.686,807.754,773.483,0.000,0.000,0
1510777392.883,756.280,768.137,807.206,754.155,0.000,0.000,0
1510777392.885,742.983,769.234,808.919,740.447,0.000,0.000,0
1510777392.887,741.269,769.165,809.742,727.218,0.000,0.000,0
1510777392.889,743.120,769.782,810.290,730.371,0.000,0.000,0
1510777392.891,748.055,771.085,811.524,741.132,0.000,0.000,0
1510777392.893,754.635,770.742,809.810,756.965,0.000,0.000,0
1510777392.895,759.775,773.895,808.028,774.580,0.000,0.000,0
1510777392.897,771.290,775.745,809.262,795.005,0.000,0.000,0
1510777392.899,778.761,778.487,810.838,801.105,0.000,0.000,0
1510777392.901,777.733,777.185,810.770,790.002,0.000,0.000,0
1510777392.903,767.657,778.898,812.620,773.758,0.000,0.000,0
1510777392.905,756.828,777.939,814.265,757.993,0.000,0.000,0
1510777392.907,755.320,775.882,815.568,744.559,0.000,0.000,0
1510777392.909,761.763,774.032,815.773,746.273,0.000,0.000,0
1510777392.911,768.000,777.870,817.487,749.357,0.000,0.000,0
1510777392.913,765.738,779.035,816.664,748.123,0.000,0.000,0
1510777392.915,770.399,781.229,816.253,762.585,0.000,0.000,0
1510777392.917,772.044,782.668,817.829,790.345,0.000,0.000,0
1510777392.919,774.580,785.752,818.446,811.866,0.000,0.000,0
1510777392.921,770.468,784.450,816.733,807.960,0.000,0.000,0
1510777392.923,764.984,784.107,817.555,784.313,0.000,0.000,0
1510777392.925,767.657,781.023,817.555,756.211,0.000,0.000,0
1510777392.927,762.585,779.172,817.624,744.902,0.000,0.000,0
1510777392.929,758.953,779.515,819.817,749.768,0.000,0.000,0
1510777392.931,766.218,779.584,819.063,745.656,0.000,0.000,0
1510777392.933,766.972,779.035,819.063,745.724,0.000,0.000,0
1510777392.935,769.988,776.842,819.474,772.867,0.000,0.000,0
1510777392.937,775.882,776.979,820.982,801.722,0.000,0.000,0
1510777392.939,782.736,776.362,822.079,818.995,0.000,0.000,0
1510777392.941,782.188,775.745,825.163,817.487,0.000,0.000,0
1510777392.943,781.229,778.830,825.780,802.339,0.000,0.000,0
1510777392.945,769.097,778.487,824.135,761.215,0.000,0.000,0
1510777392.947,761.969,777.596,820.708,738.802,0.000,0.000,0
1510777392.949,761.420,775.677,819.543,739.282,0.000,0.000,0
1510777392.951,769.919,778.076,821.531,758.542,0.000,0.000,0
1510777392.953,775.128,781.366,824.409,777.664,0.000,0.000,0
1510777392.955,779.926,780.954,823.313,789.933,0.000,0.000,0
1510777392.957,789.659,781.229,820.503,803.916,0.000,0.000,0
1510777392.959,787.055,781.297,821.393,817.213,0.000,0.000,0
1510777392.961,783.353,782.668,825.437,821.873,0.000,0.000,0
1510777392.963,787.946,784.176,827.631,805.835,0.000,0.000,0
1510777392.965,781.914,784.998,826.123,774.306,0.000,0.000,0
1510777392.967,771.359,783.970,821.188,747.644,0.000,0.000,0
1510777392.969,777.664,785.752,821.942,754.155,0.000,0.000,0
1510777392.971,793.566,787.329,824.958,768.549,0.000,0.000,0
1510777392.973,806.109,788.288,826.877,786.095,0.000,0.000,0
1510777392.975,800.626,785.547,829.276,799.186,0.000,0.000,0
1510777392.977,799.392,784.450,832.908,814.334,0.000,0.000,0
1510777392.979,799.186,779.241,835.444,826.877,0.000,0.000,0
1510777392.981,789.933,780.886,838.460,825.437,0.000,0.000,0
1510777392.983,779.858,777.664,833.731,802.065,0.000,0.000,0
1510777392.985,780.475,780.406,809.810,772.250,0.000,0.000,0
1510777392.987,763.956,781.571,789.111,742.846,0.000,0.000,0
1510777392.989,766.904,784.381,779.241,744.765,0.000,0.000,0
1510777392.991,772.867,783.628,773.278,759.501,0.000,0.000,0
1510777392.993,779.104,785.958,776.294,789.728,0.000,0.000,0
1510777392.995,782.188,784.861,777.939,800.968,0.000,0.000,0
1510777392.997,786.026,783.011,777.116,810.564,0.000,0.000,0
1510777392.999,778.007,781.297,776.157,820.640,0.000,0.000,0
1510777393.001,773.415,785.684,782.942,821.599,0.000,0.000,0
1510777393.003,771.496,785.272,783.628,793.360,0.000,0.000,0
1510777393.005,771.839,785.615,784.244,770.810,0.000,0.000,0
1510777393.007,771.564,786.506,788.014,759.501,0.000,0.000,0
1510777393.009,773.483,787.192,790.276,764.230,0.000,0.000,0
1510777393.011,773.278,789.453,792.538,769.782,0.000,0.000,0
1510777393.012,774.717,789.042,798.501,778.830,0.000,0.000,0
1510777393.014,769.508,786.026,800.283,780.749,0.000,0.000,0
1510777393.016,778.967,786.095,798.844,793.772,0.000,0.000,0
1510777393.018,794.731,791.304,799.460,814.197,0.000,0.000,0
1510777393.020,797.610,791.647,800.146,818.789,0.000,0.000,0
1510777393.022,790.345,791.510,801.517,810.838,0.000,0.000,0
1510777393.024,778.076,789.042,804.053,788.288,0.000,0.000,0
1510777393.026,776.636,792.195,808.851,775.060,0.000,0.000,0
1510777393.028,779.789,791.852,809.399,760.598,0.000,0.000,0
1510777393.030,785.684,790.687,810.084,756.622,0.000,0.000,0
1510777393.032,789.179,787.603,808.234,769.097,0.000,0.000,0
1510777393.034,793.223,789.659,811.112,789.385,0.000,0.000,0
1510777393.036,796.582,793.155,814.334,815.842,0.000,0.000,0
1510777393.038,793.223,793.429,815.568,832.908,0.000,0.000,0
1510777393.040,789.591,792.606,817.555,825.437,0.000,0.000,0
1510777393.042,788.151,793.634,817.487,802.339,0.000,0.000,0
1510777393.044,782.805,795.622,817.966,780.269,0.000,0.000,0
1510777393.046,783.628,798.638,818.515,760.872,0.000,0.000,0
1510777393.048,784.313,799.255,818.652,755.868,0.000,0.000,0
1510777393.050,777.870,796.924,815.019,766.561,0.000,0.000,0
1510777393.052,783.490,800.831,814.745,784.313,0.000,0.000,0
1510777393.054,793.292,801.654,810.838,797.199,0.000,0.000,0
1510777393.056,803.847,804.327,807.548,808.713,0.000,0.000,0
1510777393.058,802.956,805.355,806.177,818.309,0.000,0.000,0
1510777393.060,788.288,803.504,802.408,804.121,0.000,0.000,0
1510777393.062,788.083,802.271,798.090,787.192,0.000,0.000,0
1510777393.064,784.039,800.831,795.759,767.932,0.000,0.000,0
1510777393.066,778.350,803.984,794.183,753.949,0.000,0.000,0
1510777393.068,773.209,803.367,792.332,757.719,0.000,0.000,0
1510777393.070,768.617,800.694,792.264,770.331,0.000,0.000,0
1510777393.072,779.721,799.872,791.304,775.951,0.000,0.000,0
1510777393.074,794.663,801.311,791.236,792.881,0.000,0.000,0
1510777393.076,801.105,801.380,789.659,808.713,0.000,0.000,0
1510777393.078,799.255,801.037,788.562,825.163,0.000,0.000,0
1510777393.080,803.984,802.819,789.522,822.559,0.000,0.000,0
1510777393.082,796.239,799.735,785.204,781.983,0.000,0.000,0
1510777393.084,785.135,800.283,784.793,759.501,0.000,0.000,0
1510777393.086,781.845,799.255,784.656,758.884,0.000,0.000,0
1510777393.088,778.898,800.009,782.805,766.150,0.000,0.000,0
1510777393.090,780.886,799.666,785.547,772.044,0.000,0.000,0
1510777393.092,789.933,802.819,787.671,783.765,0.000,0.000,0
1510777393.094,789.042,804.053,787.123,791.784,0.000,0.000,0
1510777393.096,787.192,802.545,784.724,803.504,0.000,0.000,0
1510777393.098,796.376,804.807,786.506,814.060,0.000,0.000,0
1510777393.100,805.355,808.234,786.575,823.039,0.000,0.000,0
1510777393.102,793.840,807.617,783.079,817.829,0.000,0.000,0
1510777393.104,786.438,807.891,778.350,792.675,0.000,0.000,0
1510777393.106,793.977,811.318,775.403,766.972,0.000,0.000,0
1510777393.108,795.417,812.415,773.141,762.380,0.000,0.000,0
1510777393.110,787.466,810.770,771.701,765.807,0.000,0.000,0
1510777393.112,787.260,811.798,771.427,774.717,0.000,0.000,0
1510777393.114,796.308,810.221,769.097,781.229,0.000,0.000,0
1510777393.116,800.557,808.645,765.875,796.376,0.000,0.000,0
1510777393.118,803.779,808.919,766.835,809.810,0.000,0.000,0
1510777393.120,805.835,807.685,770.262,816.321,0.000,0.000,0
1510777393.122,803.025,808.919,772.524,809.947,0.000,0.000,0
1510777393.124,793.429,810.016,773.621,789.865,0.000,0.000,0
1510777393.126,780.954,811.044,777.116,771.153,0.000,0.000,0
1510777393.128,786.095,811.181,778.076,761.283,0.000,0.000,0
1510777393.130,795.622,812.963,779.447,765.601,0.000,0.000,0
1510777393.132,796.582,809.604,778.144,771.564,0.000,0.000,0
1510777393.134,807.206,813.580,782.462,787.397,0.000,0.000,0
1510777393.136,809.262,814.197,783.490,807.822,0.000,0.000,0
1510777393.138,803.984,813.785,786.369,823.792,0.000,0.000,0
1510777393.140,801.517,813.237,789.248,824.341,0.000,0.000,0
1510777393.142,794.251,813.511,792.195,816.527,0.000,0.000,0
1510777393.144,790.687,815.293,792.538,803.162,0.000,0.000,0
1510777393.146,785.272,810.701,788.425,767.109,0.000,0.000,0
1510777393.148,785.821,810.496,790.070,750.454,0.000,0.000,0
1510777393.150,780.749,810.427,790.482,755.800,0.000,0.000,0
1510777393.152,787.123,813.648,790.961,773.483,0.000,0.000,0
1510777393.154,795.348,813.511,790.276,788.083,0.000,0.000,0
1510777393.156,807.685,814.197,791.236,802.476,0.000,0.000,0
1510777393.158,813.854,816.459,794.251,821.119,0.000,0.000,0
1510777393.160,807.960,818.652,796.924,815.568,0.000,0.000,0
1510777393.162,796.445,815.705,797.267,796.239,0.000,0.000,0
1510777393.164,794.251,811.798,794.868,778.555,0.000,0.000,0
1510777393.166,801.859,810.084,795.348,765.875,0.000,0.000,0
1510777393.168,800.626,812.141,797.336,772.250,0.000,0.000,0
1510777393.170,792.469,810.290,797.541,779.515,0.000,0.000,0
1510777393.172,791.715,809.536,800.009,790.413,0.000,0.000,0
1510777393.174,796.787,811.318,800.763,800.009,0.000,0.000,0
1510777393.176,799.186,809.536,801.448,813.443,0.000,0.000,0
1510777393.178,809.330,812.072,803.710,831.400,0.000,0.000,0
1510777393.180,807.960,811.112,799.460,819.680,0.000,0.000,0
1510777393.182,799.529,809.742,797.678,795.142,0.000,0.000,0
1510777393.184,793.497,809.125,798.912,783.011,0.000,0.000,0
1510777393.186,782.188,808.028,800.968,772.935,0.000,0.000,0
1510777393.188,786.780,807.411,801.585,763.819,0.000,0.000,0
1510777393.190,791.030,806.931,801.517,765.601,0.000,0.000,0
1510777393.192,792.881,807.685,802.476,778.830,0.000,0.000,0
1510777393.194,798.569,809.262,803.299,789.796,0.000,0.000,0
1510777393.196,807.137,808.302,803.984,815.842,0.000,0.000,0
1510777393.198,811.318,805.972,801.791,822.010,0.000,0.000,0
1510777393.200,805.972,807.137,803.367,817.966,0.000,0.000,0
1510777393.202,798.158,809.056,804.875,810.358,0.000,0.000,0
1510777393.204,786.506,807.822,807.068,789.522,0.000,0.000,0
1510777393.206,779.172,807.137,809.947,773.552,0.000,0.000,0
1510777393.208,789.796,812.278,813.923,777.253,0.000,0.000,0
1510777393.210,802.613,820.571,821.805,789.179,0.000,0.000,0
1510777393.212,807.960,821.188,823.381,791.510,0.000,0.000,0
1510777393.214,821.462,826.123,827.494,808.851,0.000,0.000,0
1510777393.216,824.546,823.861,828.453,830.578,0.000,0.000,1
1510777393.218,828.590,827.425,830.989,853.128,0.000,0.000,0
1510777393.220,827.082,828.385,832.223,852.237,0.000,0.000,0
1510777393.222,825.643,828.659,832.223,836.198,0.000,0.000,0
1510777393.224,818.995,827.836,833.731,815.499,0.000,0.000,0
1510777393.226,808.645,826.945,835.102,799.323,0.000,0.000,0
1510777393.228,811.112,831.195,836.335,796.856,0.000,0.000,0
1510777393.230,805.698,827.219,832.634,781.914,0.000,0.000,0
1510777393.232,805.972,825.163,831.880,794.937,0.000,0.000,0
1510777393.234,811.524,825.232,832.977,812.415,0.000,0.000,0
1510777393.236,817.418,824.204,834.279,825.986,0.000,0.000,0
1510777393.238,829.481,826.534,832.840,837.432,0.000,0.000,0
1510777393.240,834.005,826.328,832.223,844.012,0.000,0.000,0
1510777393.242,825.300,828.453,832.292,835.650,0.000,0.000,0
1510777393.244,818.583,826.808,832.703,803.299,0.000,0.000,0
1510777393.246,812.278,823.107,837.226,783.765,0.000,0.000,0
1510777393.248,814.060,820.023,836.541,783.902,0.000,0.000,0
1510777393.250,818.583,822.764,835.650,794.046,0.000,0.000,0
1510777393.252,815.225,826.877,832.086,801.380,0.000,0.000,0
1510777393.254,819.337,826.603,829.824,810.496,0.000,0.000,0
1510777393.256,823.450,825.095,830.372,824.958,0.000,0.000,0
1510777393.258,823.313,825.780,832.223,840.037,0.000,0.000,0
1510777393.260,823.313,827.219,832.360,837.226,0.000,0.000,0
1510777393.262,814.334,824.752,833.457,820.914,0.000,0.000,0
1510777393.264,806.383,820.434,832.154,801.380,0.000,0.000,0
1510777393.266,810.221,820.297,831.400,784.724,0.000,0.000,0
1510777393.268,819.132,820.708,836.061,794.320,0.000,0.000,0
1510777393.270,811.318,818.515,834.348,797.884,0.000,0.000,0
1510777393.272,810.838,819.132,833.388,801.722,0.000,0.000,0
1510777393.274,815.979,819.680,833.662,815.225,0.000,0.000,0
1510777393.276,823.450,817.075,835.376,835.581,0.000,0.000,0
1510777393.278,832.566,817.898,836.610,844.149,0.000,0.000,0
1510777393.280,825.437,816.116,835.376,835.307,0.000,0.000,0
1510777393.282,808.713,815.293,834.211,813.854,0.000,0.000,0
1510777393.284,805.561,816.321,834.622,796.924,0.000,0.000,0
1510777393.286,805.561,818.926,835.376,782.188,0.000,0.000,0
1510777393.288,799.940,817.555,835.581,775.471,0.000,0.000,0
1510777393.290,803.916,816.116,834.074,781.983,0.000,0.000,0
1510777393.292,814.265,815.019,833.594,798.364,0.000,0.000,0
1510777393.294,816.116,816.253,832.223,809.056,0.000,0.000,0
1510777393.296,818.035,817.213,830.578,814.334,0.000,0.000,0
1510777393.298,820.640,815.362,828.933,828.042,0.000,0.000,0
1510777393.300,818.652,815.362,832.086,841.407,0.000,0.000,0
1510777393.302,816.527,816.733,833.662,832.840,0.000,0.000,0
1510777393.304,803.710,814.060,832.017,811.661,0.000,0.000,0
1510777393.306,801.174,814.060,832.566,790.070,0.000,0.000,0
1510777393.308,806.383,813.991,832.977,786.643,0.000,0.000,0
1510777393.310,812.141,812.963,836.130,792.743,0.000,0.000,0
1510777393.312,818.789,811.592,835.856,799.118,0.000,0.000,0
1510777393.314,826.054,812.757,832.154,804.532,0.000,0.000,0
1510777393.316,828.042,812.346,833.183,820.982,0.000,0.000,0
1510777393.318,821.119,811.387,833.114,839.283,0.000,0.000,0
1510777393.320,810.838,810.290,832.908,837.501,0.000,0.000,0
1510777393.322,810.496,809.262,831.058,819.886,0.000,0.000,0
1510777393.324,806.589,809.399,831.743,796.787,0.000,0.000,0
1510777393.326,803.641,809.467,831.949,780.954,0.000,0.000,0
1510777393.328,801.105,810.290,832.634,776.636,0.000,0.000,0
1510777393.330,800.763,807.822,832.840,775.608,0.000,0.000,0
1510777393.332,802.888,806.794,830.441,784.587,0.000,0.000,0
1510777393.334,813.717,807.068,831.949,802.339,0.000,0.000,0
1510777393.336,817.624,807.206,830.509,817.418,0.000,0.000,0
1510777393.338,822.216,805.149,831.469,833.045,0.000,0.000,0
1510777393.340,830.372,806.794,834.211,841.682,0.000,0.000,0
1510777393.342,824.478,809.467,834.622,835.170,0.000,0.000,0
1510777393.344,801.037,810.975,836.335,805.766,0.000,0.000,0
1510777393.346,782.942,807.960,833.868,765.121,0.000,0.000,0
1510777393.348,788.768,806.794,834.348,758.542,0.000,0.000,0
1510777393.350,795.965,806.246,833.251,768.343,0.000,0.000,0
1510777393.352,801.105,807.617,835.376,788.631,0.000,0.000,0
1510777393.354,806.520,806.931,835.376,803.641,0.000,0.000,0
1510777393.356,814.745,804.944,835.376,815.430,0.000,0.000,0
1510777393.358,819.954,804.053,835.719,832.223,0.000,0.000,0
1510777393.360,819.406,805.835,837.501,844.149,0.000,0.000,0
1510777393.362,806.109,804.464,838.323,822.696,0.000,0.000,0
1510777393.364,796.719,802.339,837.432,792.606,0.000,0.000,0
1510777393.366,793.703,801.859,839.420,781.640,0.000,0.000,0
1510777393.368,801.722,800.489,841.750,791.236,0.000,0.000,0
1510777393.370,804.601,795.691,841.545,794.526,0.000,0.000,0
1510777393.372,808.851,793.292,840.516,809.125,0.000,0.000,0
1510777393.374,812.346,788.562,839.146,815.705,0.000,0.000,0
1510777393.376,815.568,783.559,839.968,825.437,0.000,0.000,0
1510777393.378,817.418,779.172,842.641,834.553,0.000,0.000,0
1510777393.380,817.213,776.088,844.286,835.239,0.000,0.000,0
1510777393.382,808.508,772.455,842.298,826.808,0.000,0.000,0
1510777393.384,804.601,773.826,843.258,809.604,0.000,0.000,0
1510777393.386,790.756,772.798,841.407,782.531,0.000,0.000,0
1510777393.388,789.522,771.427,840.928,778.487,0.000,0.000,0
1510777393.390,802.682,772.318,839.351,784.930,0.000,0.000,0
1510777393.392,805.218,773.621,840.859,799.323,0.000,0.000,0
1510777393.394,807.000,777.733,842.778,811.112,0.000,0.000,0
1510777393.396,815.019,779.104,840.859,816.870,0.000,0.000,0
1510777393.398,821.668,779.721,838.803,820.503,0.000,0.000,0
1510777393.400,830.372,784.039,840.928,829.413,0.000,0.000,0
1510777393.402,819.886,785.135,841.750,827.768,0.000,0.000,0
1510777393.404,801.311,785.135,840.448,805.835,0.000,0.000,0
1510777393.406,803.025,787.123,841.270,787.740,0.000,0.000,0
1510777393.408,806.315,788.562,842.710,787.740,0.000,0.000,0
1510777393.410,815.225,790.756,844.218,787.809,0.000,0.000,0
1510777393.412,820.640,790.276,842.504,786.026,0.000,0.000,0
1510777393.414,808.576,788.357,841.339,792.127,0.000,0.000,0
1510777393.416,802.682,787.740,839.694,807.068,0.000,0.000,0
1510777393.418,809.467,791.373,841.133,835.650,0.000,0.000,0
1510777393.420,817.144,791.236,842.024,843.806,0.000,0.000,0
1510777393.422,825.437,791.030,843.669,831.949,0.000,0.000,0
1510777393.424,815.773,791.304,844.766,809.742,0.000,0.000,0
1510777393.426,803.436,791.921,844.629,793.223,0.000,0.000,0
1510777393.428,798.364,793.155,843.601,777.664,0.000,0.000,0
1510777393.430,803.025,794.526,844.355,774.717,0.000,0.000,0
1510777393.432,802.819,792.332,843.738,787.397,0.000,0.000,0
1510777393.434,806.589,795.485,845.177,809.947,0.000,0.000,0
1510777393.436,807.685,796.445,845.588,817.075,0.000,0.000,0
1510777393.438,809.330,797.678,844.355,830.989,0.000,0.000,0
1510777393.440,817.007,797.678,844.286,842.504,0.000,0.000,0
1510777393.442,816.321,797.199,843.738,838.323,0.000,0.000,0
1510777393.444,814.265,800.420,843.669,815.705,0.000,0.000,0
1510777393.446,805.218,802.476,844.697,785.684,0.000,0.000,0
1510777393.448,799.118,799.323,842.230,775.745,0.000,0.000,0
1510777393.450,813.237,801.791,843.875,788.837,0.000,0.000,0
1510777393.452,820.023,806.040,842.093,804.258,0.000,0.000,0
1510777393.454,820.914,805.972,840.516,822.285,0.000,0.000,0
1510777393.456,819.611,805.149,842.778,833.662,0.000,0.000,0
1510777393.458,820.640,803.299,844.012,845.109,0.000,0.000,0
1510777393.460,822.353,802.408,843.601,849.153,0.000,0.000,0
1510777393.462,827.631,804.807,843.258,829.207,0.000,0.000,0
1510777393.464,814.677,807.137,842.641,803.779,0.000,0.000,0
1510777393.466,804.190,803.573,839.557,785.752,0.000,0.000,0
1510777393.468,804.807,801.585,841.065,786.917,0.000,0.000,0
1510777393.470,805.081,801.791,842.436,794.457,0.000,0.000,0
1510777393.472,804.464,801.859,841.682,798.090,0.000,0.000,0
1510777393.474,812.757,802.476,841.339,810.975,0.000,0.000,0
1510777393.476,825.849,803.916,843.121,832.908,0.000,0.000,0
1510777393.478,826.603,806.589,847.096,850.660,0.000,0.000,0
1510777393.480,825.232,806.383,845.383,840.379,0.000,0.000,0
1510777393.482,814.471,804.464,840.791,825.986,0.000,0.000,0
1510777393.484,810.358,805.698,842.161,813.991,0.000,0.000,0
1510777393.486,809.125,803.230,844.834,797.884,0.000,0.000,0
1510777393.488,816.938,802.202,845.040,797.953,0.000,0.000,0
1510777393.490,823.313,802.408,844.697,808.097,0.000,0.000,0
1510777393.492,823.381,804.944,845.246,816.870,0.000,0.000,0
1510777393.494,824.958,808.234,844.972,824.683,0.000,0.000,0
1510777393.496,834.279,812.141,844.355,829.550,0.000,0.000,0
1510777393.498,833.799,813.443,845.109,843.258,0.000,0.000,0
1510777393.500,828.111,810.770,840.859,844.766,0.000,0.000,0
1510777393.502,825.437,809.536,838.666,836.747,0.000,0.000,0
1510777393.504,818.309,810.496,837.089,815.499,0.000,0.000,0
1510777393.506,814.060,809.330,835.650,796.924,0.000,0.000,0
1510777393.508,816.253,810.153,837.980,791.578,0.000,0.000,0
1510777393.510,817.281,811.798,842.984,798.090,0.000,0.000,0
1510777393.512,809.193,810.221,841.202,792.949,0.000,0.000,0
1510777393.514,812.346,807.274,836.335,807.068,0.000,0.000,0
1510777393.516,830.509,808.919,837.089,828.659,0.000,0.000,0
1510777393.518,843.464,810.975,839.831,845.588,0.000,0.000,0
1510777393.520,833.457,808.234,840.105,847.370,0.000,0.000,0
1510777393.522,826.534,809.879,837.638,837.364,0.000,0.000,0
1510777393.524,822.010,809.399,837.638,813.854,0.000,0.000,0
1510777393.526,813.923,809.125,837.638,800.489,0.000,0.000,0
1510777393.528,814.197,809.810,840.791,792.949,0.000,0.000,0
1510777393.530,816.184,811.524,842.298,784.656,0.000,0.000,0
1510777393.532,821.462,810.564,841.339,790.345,0.000,0.000,0
1510777393.534,821.805,812.278,843.327,805.766,0.000,0.000,0
1510777393.536,817.281,812.141,842.847,822.833,0.000,0.000,0
1510777393.538,819.269,809.742,842.093,844.286,0.000,0.000,0
1510777393.540,829.276,809.262,840.585,846.205,0.000,0.000,0
1510777393.542,834.553,813.717,844.560,845.040,0.000,0.000,0
1510777393.544,823.244,811.524,842.298,815.362,0.000,0.000,0
1510777393.546,817.213,812.483,840.996,792.058,0.000,0.000,0
1510777393.548,815.773,812.346,843.395,786.369,0.000,0.000,0
1510777393.550,822.010,813.580,844.903,793.223,0.000,0.000,0
1510777393.552,822.285,814.882,843.738,802.065,0.000,0.000,0
1510777393.554,821.393,815.430,841.887,812.141,0.000,0.000,0
1510777393.556,823.655,815.636,844.972,827.836,0.000,0.000,0
1510777393.558,832.977,815.362,846.891,848.124,0.000,0.000,0
1510777393.560,836.404,815.499,846.342,857.035,0.000,0.000,0
1510777393.562,834.485,818.583,848.330,841.133,0.000,0.000,0
1510777393.564,827.288,817.144,848.330,819.132,0.000,0.000,0
1510777393.566,822.970,815.636,844.697,795.622,0.000,0.000,0
1510777393.568,814.197,816.184,846.411,790.207,0.000,0.000,0
1510777393.570,816.870,816.733,844.012,794.457,0.000,0.000,0
1510777393.572,815.568,815.499,842.573,804.532,0.000,0.000,0
1510777393.574,822.285,819.200,845.177,817.692,0.000,0.000,0
1510777393.576,828.316,819.886,845.863,817.829,0.000,0.000,0
1510777393.578,829.618,817.487,843.601,827.014,0.000,0.000,0
1510777393.580,831.675,818.172,844.081,838.049,0.000,0.000,0
1510777393.582,827.973,820.365,845.931,838.871,0.000,0.000,0
1510777393.584,824.683,822.147,846.822,825.643,0.000,0.000,0
1510777393.586,818.583,823.381,847.302,807.343,0.000,0.000,0
1510777393.588,812.483,822.079,848.536,797.473,0.000,0.000,0
1510777393.590,816.116,821.256,847.370,793.566,0.000,0.000,0
1510777393.592,826.054,820.023,846.342,803.916,0.000,0.000,0
1510777393.594,832.154,820.914,847.645,823.176,0.000,0.000,0
1510777393.596,831.195,821.256,845.246,831.469,0.000,0.000,0
1510777393.598,837.364,823.381,845.383,833.594,0.000,0.000,0
1510777393.600,843.190,824.752,846.205,830.784,0.000,0.000,0
1510777393.602,843.464,823.107,843.601,824.683,0.000,0.000,0
1510777393.604,830.989,823.792,845.451,812.209,0.000,0.000,0
1510777393.606,809.056,824.821,841.613,800.009,0.000,0.000,0
1510777393.608,812.072,823.792,844.697,798.981,0.000,0.000,0
1510777393.610,828.453,827.425,846.548,801.722,0.000,0.000,0
1510777393.612,824.135,826.260,844.423,792.401,0.000,0.000,0
1510777393.614,819.886,824.683,843.738,799.666,0.000,0.000,0
1510777393.616,828.727,823.518,842.093,821.188,0.000,0.000,0
1510777393.618,837.295,824.752,844.834,841.682,0.000,0.000,0
1510777393.620,838.529,824.478,846.205,849.701,0.000,0.000,0
1510777393.622,836.267,823.930,846.959,846.342,0.000,0.000,0
1510777393.624,830.852,823.998,846.822,832.703,0.000,0.000,0
1510777393.626,825.506,822.696,846.411,813.648,0.000,0.000,0
1510777393.627,823.724,824.478,846.000,798.569,0.000,0.000,0
1510777393.629,821.119,823.381,843.943,790.550,0.000,0.000,0
1510777393.631,819.543,821.188,843.327,795.896,0.000,0.000,0
1510777393.633,823.998,823.107,848.056,813.374,0.000,0.000,0
1510777393.635,838.117,823.861,848.330,837.775,0.000,0.000,0
1510777393.637,841.956,826.603,850.181,854.773,0.000,0.000,0
1510777393.639,834.005,827.357,849.427,853.539,0.000,0.000,0
1510777393.641,837.638,828.179,849.906,852.648,0.000,0.000,0
1510777393.643,845.863,825.232,848.399,822.696,0.000,0.000,0
1510777393.645,838.392,823.313,849.427,798.844,0.000,0.000,0
1510777393.647,812.278,822.010,846.068,784.039,0.000,0.000,0
1510777393.649,806.863,826.328,848.536,789.385,0.000,0.000,0
1510777393.651,819.337,825.232,847.028,794.251,0.000,0.000,0
1510777393.653,827.219,825.437,847.645,807.960,0.000,0.000,0
1510777393.655,828.385,826.466,848.467,827.082,0.000,0.000,0
1510777393.657,832.086,827.082,850.044,847.919,0.000,0.000,0
1510777393.659,843.052,825.643,850.592,847.165,0.000,0.000,0
1510777393.661,835.924,824.615,848.947,838.666,0.000,0.000,0
1510777393.663,816.938,821.736,846.205,822.010,0.000,0.000,0
1510777393.665,820.228,825.575,850.112,816.801,0.000,0.000,0
1510777393.667,823.244,825.712,852.031,799.598,0.000,0.000,0
1510777393.669,823.381,824.204,850.729,790.413,0.000,0.000,0
1510777393.671,823.518,823.107,850.729,802.888,0.000,0.000,0
1510777393.673,826.466,822.627,850.729,817.007,0.000,0.000,0
1510777393.675,826.603,823.518,848.604,820.914,0.000,0.000,0
1510777393.677,834.211,826.123,849.769,835.513,0.000,0.000,0
1510777393.679,833.594,825.437,847.302,838.803,0.000,0.000,0
1510777393.681,826.466,825.369,845.588,832.017,0.000,0.000,0
1510777393.683,824.067,824.135,846.891,823.655,0.000,0.000,0
1510777393.685,822.147,823.313,845.520,808.097,0.000,0.000,0
1510777393.687,811.387,820.708,841.339,793.840,0.000,0.000,0
1510777393.689,809.536,819.063,838.049,793.772,0.000,0.000,0
1510777393.691,820.777,817.692,840.516,795.142,0.000,0.000,0
1510777393.693,824.821,816.321,841.407,795.691,0.000,0.000,0
1510777393.695,826.534,814.539,839.625,810.084,0.000,0.000,0
1510777393.697,828.248,814.060,839.077,830.852,0.000,0.000,0
1510777393.699,837.226,817.007,842.367,851.414,0.000,0.000,0
1510777393.701,838.255,816.116,842.710,836.678,0.000,0.000,0
1510777393.703,826.877,814.951,841.613,814.471,0.000,0.000,0
1510777393.705,815.156,812.689,839.351,803.367,0.000,0.000,0
1510777393.707,814.128,813.923,839.831,796.719,0.000,0.000,0
1510777393.709,811.524,815.979,840.654,784.861,0.000,0.000,0
1510777393.711,805.355,816.733,839.420,786.164,0.000,0.000,0
1510777393.713,810.975,814.745,837.432,798.227,0.000,0.000,0
1510777393.715,821.599,817.281,840.105,822.010,0.000,0.000,0
1510777393.717,826.397,818.583,841.339,844.629,0.000,0.000,0
1510777393.719,829.961,817.829,840.585,846.891,0.000,0.000,0
1510777393.721,829.755,820.297,841.407,839.831,0.000,0.000,0
1510777393.723,810.358,820.708,839.694,818.652,0.000,0.000,0
1510777393.725,800.694,821.531,842.847,800.900,0.000,0.000,0
1510777393.727,800.489,820.160,839.420,780.200,0.000,0.000,0
1510777393.729,801.380,821.462,839.351,781.366,0.000,0.000,0
1510777393.731,798.364,822.216,838.940,787.192,0.000,0.000,0
1510777393.733,808.508,825.300,842.367,805.149,0.000,0.000,0
1510777393.735,816.527,822.833,841.202,823.861,0.000,0.000,0
1510777393.737,827.631,823.450,841.887,838.734,0.000,0.000,0
1510777393.739,834.142,823.244,841.750,840.585,0.000,0.000,0
1510777393.741,832.497,823.792,840.996,839.283,0.000,0.000,0
1510777393.743,825.506,823.244,839.420,819.543,0.000,0.000,0
1510777393.745,820.708,825.780,841.545,801.037,0.000,0.000,0
1510777393.747,808.302,823.313,837.638,784.244,0.000,0.000,0
1510777393.749,813.991,825.369,836.130,789.111,0.000,0.000,0
1510777393.751,823.655,825.917,836.952,791.852,0.000,0.000,0
1510777393.753,831.263,825.986,837.364,802.202,0.000,0.000,0
1510777393.755,831.400,826.466,839.420,818.857,0.000,0.000,0
1510777393.757,821.942,824.821,839.283,831.606,0.000,0.000,0
1510777393.759,819.749,824.683,839.557,840.585,0.000,0.000,0
1510777393.761,824.889,826.191,842.230,838.460,0.000,0.000,0
1510777393.763,820.708,825.095,841.613,815.088,0.000,0.000,0
1510777393.765,809.604,821.599,840.311,791.578,0.000,0.000,0
1510777393.767,808.028,825.095,840.585,779.447,0.000,0.000,0
1510777393.769,805.903,827.288,840.791,778.281,0.000,0.000,0
1510777393.771,805.218,828.316,842.024,787.329,0.000,0.000,0
1510777393.773,819.200,829.550,843.121,803.916,0.000,0.000,0
1510777393.775,826.260,828.179,841.339,807.000,0.000,0.000,0
1510777393.777,831.263,827.836,841.133,819.954,0.000,0.000,0
1510777393.779,833.594,826.740,839.762,832.566,0.000,0.000,0
1510777393.781,832.566,829.961,842.710,841.545,0.000,0.000,0
1510777393.783,827.905,832.429,843.738,828.453,0.000,0.000,0
1510777393.785,821.599,831.332,841.887,807.685,0.000,0.000,0
1510777393.787,815.499,829.481,842.778,793.703,0.000,0.000,0
1510777393.789,825.849,829.550,842.778,792.195,0.000,0.000,0
1510777393.791,839.351,829.344,844.081,793.292,0.000,0.000,0
1510777393.793,835.102,831.126,845.246,804.670,0.000,0.000,0
1510777393.795,817.487,829.481,844.355,804.738,0.000,0.000,0
1510777393.797,823.587,828.659,841.956,823.313,0.000,0.000,0
1510777393.799,831.400,829.961,842.778,836.061,0.000,0.000,0
1510777393.801,832.566,832.566,844.629,837.432,0.000,0.000,0
1510777393.803,830.647,834.553,846.000,827.494,0.000,0.000,0
1510777393.805,831.743,834.348,846.959,812.757,0.000,0.000,0
1510777393.807,827.151,837.158,845.726,802.819,0.000,0.000,0
1510777393.809,826.397,839.351,846.411,794.868,0.000,0.000,0
1510777393.811,823.930,834.074,843.190,788.357,0.000,0.000,0
1510777393.813,830.441,835.581,846.754,804.395,0.000,0.000,0
1510777393.815,823.244,836.952,848.330,820.914,0.000,0.000,0
1510777393.817,825.917,835.650,848.947,835.993,0.000,0.000,0
1510777393.819,835.444,831.469,845.177,837.980,0.000,0.000,0
1510777393.821,839.968,832.223,845.863,841.202,0.000,0.000,0
1510777393.823,827.357,834.142,847.233,829.344,0.000,0.000,0
1510777393.825,818.309,834.279,847.233,808.576,0.000,0.000,0
1510777393.827,823.587,839.214,847.713,793.292,0.000,0.000,0
1510777393.829,824.272,838.392,847.302,786.164,0.000,0.000,0
1510777393.831,822.353,836.815,845.657,794.937,0.000,0.000,0
1510777393.833,825.917,838.803,845.657,803.367,0.000,0.000,0
1510777393.835,827.905,839.557,847.850,813.580,0.000,0.000,0
1510777393.837,834.622,839.077,847.028,822.970,0.000,0.000,0
1510777393.839,839.488,837.364,845.588,836.061,0.000,0.000,0
1510777393.841,837.843,839.762,849.016,841.476,0.000,0.000,0
1510777393.843,830.647,841.750,848.741,823.176,0.000,0.000,0
1510777393.845,820.640,840.654,845.109,802.888,0.000,0.000,0
1510777393.847,820.023,839.009,843.395,789.865,0.000,0.000,0
1510777393.849,826.603,842.504,846.617,797.199,0.000,0.000,0
1510777393.851,827.288,839.900,847.233,807.480,0.000,0.000,0
1510777393.853,833.799,839.146,846.822,816.733,0.000,0.000,0
1510777393.855,842.298,838.255,846.000,827.768,0.000,0.000,0
1510777393.857,853.402,839.283,847.233,849.495,0.000,0.000,0
1510777393.859,858.885,841.065,846.685,869.304,0.000,0.000,0
1510777393.861,854.636,842.436,846.274,852.443,0.000,0.000,0
1510777393.863,834.279,840.722,845.040,814.265,0.000,0.000,0
1510777393.865,824.546,839.557,843.395,794.663,0.000,0.000,0
1510777393.867,823.792,840.791,843.875,786.232,0.000,0.000,0
1510777393.869,824.272,839.762,842.641,791.784,0.000,0.000,0
1510777393.871,828.111,841.613,844.218,797.336,0.000,0.000,0
1510777393.873,842.504,844.423,846.617,808.576,0.000,0.000,0
1510777393.875,841.545,842.710,847.028,813.237,0.000,0.000,0
1510777393.877,836.541,839.900,846.411,827.151,0.000,0.000,0
1510777393.879,841.545,838.940,845.794,836.884,0.000,0.000,0
1510777393.881,848.741,840.105,848.399,848.330,0.000,0.000,0
1510777393.883,852.305,840.996,849.290,846.959,0.000,0.000,0
1510777393.885,844.492,842.024,848.741,815.430,0.000,0.000,0
1510777393.887,836.335,841.065,847.645,792.127,0.000,0.000,0
1510777393.889,825.232,840.105,847.370,793.977,0.000,0.000,0
1510777393.891,828.933,839.625,849.838,804.395,0.000,0.000,0
1510777393.893,828.864,840.996,851.346,812.072,0.000,0.000,0
1510777393.895,837.775,843.395,852.991,821.599,0.000,0.000,1
1510777393.897,847.782,842.093,851.483,834.828,0.000,0.000,0
1510777393.899,852.374,840.379,849.016,842.710,0.000,0.000,0
1510777393.901,850.866,841.956,850.318,840.037,0.000,0.000,0
1510777393.903,841.819,842.093,850.112,833.114,0.000,0.000,0
1510777393.905,836.061,842.436,850.523,823.587,0.000,0.000,0
1510777393.907,839.968,843.601,849.769,806.109,0.000,0.000,0
1510777393.909,842.436,841.339,851.689,790.413,0.000,0.000,0
1510777393.911,840.654,838.529,852.168,791.236,0.000,0.000,0
1510777393.913,842.504,841.065,852.100,803.093,0.000,0.000,0
1510777393.915,843.532,845.177,852.374,820.228,0.000,0.000,0
1510777393.917,847.439,845.246,851.826,838.117,0.000,0.000,0
1510777393.919,852.100,842.984,853.539,842.367,0.000,0.000,0
1510777393.921,847.028,841.682,854.636,832.429,0.000,0.000,0
1510777393.923,843.875,842.778,853.882,818.995,0.000,0.000,0
1510777393.925,842.573,843.395,853.539,803.162,0.000,0.000,0
1510777393.927,833.114,845.314,853.128,791.852,0.000,0.000,0
1510777393.929,822.559,842.367,852.168,796.787,0.000,0.000,0
1510777393.931,842.093,846.205,852.854,807.137,0.000,0.000,0
1510777393.933,853.745,845.657,852.648,814.745,0.000,0.000,0
1510777393.935,852.237,845.040,851.483,826.945,0.000,0.000,0
1510777393.937,849.906,846.617,851.826,848.536,0.000,0.000,0
1510777393.939,854.362,846.274,853.196,868.344,0.000,0.000,0
1510777393.941,856.555,847.233,855.801,863.478,0.000,0.000,0
1510777393.943,851.414,846.205,854.019,840.654,0.000,0.000,0
1510777393.945,842.573,846.000,854.225,825.163,0.000,0.000,0
1510777393.947,831.538,845.726,854.088,814.334,0.000,0.000,0
1510777393.949,837.843,845.931,857.172,821.119,0.000,0.000,0
1510777393.951,841.476,844.903,857.926,827.973,0.000,0.000,0
1510777393.953,846.479,843.464,857.377,838.803,0.000,0.000,0
1510777393.955,847.439,842.710,855.527,853.334,0.000,0.000,0
1510777393.957,845.451,842.093,853.265,869.235,0.000,0.000,0
1510777393.959,857.583,843.806,855.116,881.230,0.000,0.000,0
1510777393.961,852.854,839.420,854.156,860.325,0.000,0.000,0
1510777393.963,842.915,840.928,856.075,839.214,0.000,0.000,0
1510777393.965,837.638,840.859,857.172,824.958,0.000,0.000,0
1510777393.967,842.641,842.573,857.172,817.555,0.000,0.000,0
1510777393.969,842.847,842.710,859.297,817.692,0.000,0.000,0
1510777393.971,837.569,844.697,859.913,826.260,0.000,0.000,0
1510777393.973,840.654,844.286,859.091,834.690,0.000,0.000,0
1510777393.975,851.757,844.697,862.244,847.302,0.000,0.000,0
1510777393.977,850.044,843.395,862.038,855.664,0.000,0.000,0
1510777393.979,850.318,841.476,863.203,865.739,0.000,0.000,0
1510777393.981,850.798,842.504,863.752,871.154,0.000,0.000,0
1510777393.983,843.806,843.052,862.107,855.664,0.000,0.000,0
1510777393.985,827.357,843.190,860.051,826.123,0.000,0.000,0
1510777393.987,821.668,841.545,860.119,810.016,0.000,0.000,0
1510777393.989,829.413,840.379,861.079,804.807,0.000,0.000,0
1510777393.991,835.102,839.488,861.216,805.766,0.000,0.000,0
1510777393.993,837.295,840.585,864.780,822.285,0.000,0.000,0
1510777393.995,836.541,839.009,863.683,834.074,0.000,0.000,0
1510777393.997,843.943,842.161,865.465,846.137,0.000,0.000,0
1510777393.999,841.545,837.912,863.752,853.676,0.000,0.000,0
1510777394.001,847.439,841.613,868.070,862.792,0.000,0.000,0
1510777394.003,845.177,839.900,866.768,854.293,0.000,0.000,0
1510777394.005,839.762,838.666,867.042,841.887,0.000,0.000,0
1510777394.007,842.984,841.339,868.824,827.014,0.000,0.000,0
1510777394.009,845.794,839.557,866.356,817.350,0.000,0.000,0
1510777394.011,850.729,843.190,868.001,818.926,0.000,0.000,0
1510777394.013,837.569,841.407,867.179,819.269,0.000,0.000,0
1510777394.015,828.385,842.161,868.344,839.077,0.000,0.000,0
1510777394.017,834.896,843.806,869.852,859.228,0.000,0.000,0
1510777394.019,848.741,844.903,870.332,876.089,0.000,0.000,0
1510777394.021,849.084,846.411,871.154,879.036,0.000,0.000,0
1510777394.023,848.536,844.697,871.977,870.057,0.000,0.000,0
1510777394.025,845.314,845.314,874.581,844.492,0.000,0.000,0
1510777394.027,833.868,842.230,873.827,815.705,0.000,0.000,0
1510777394.029,834.690,841.407,871.771,812.141,0.000,0.000,0
1510777394.031,841.339,842.161,869.646,820.023,0.000,0.000,0
1510777394.033,846.548,841.819,869.920,838.803,0.000,0.000,0
1510777394.035,855.458,843.464,870.880,853.128,0.000,0.000,0
1510777394.037,857.857,842.778,871.086,863.752,0.000,0.000,0
1510777394.039,858.543,842.573,871.908,878.214,0.000,0.000,0
1510777394.041,863.203,842.504,872.525,885.274,0.000,0.000,0
1510777394.043,863.615,842.298,875.130,868.138,0.000,0.000,0
1510777394.045,847.302,842.778,872.319,840.379,0.000,0.000,0
1510777394.047,835.033,838.803,870.263,829.139,0.000,0.000,0
1510777394.049,842.093,841.407,873.690,828.179,0.000,0.000,0
1510777394.051,849.632,840.928,873.142,827.562,0.000,0.000,0
1510777394.053,851.140,839.625,872.251,843.190,0.000,0.000,0
1510777394.055,852.991,839.283,872.525,861.284,0.000,0.000,0
1510777394.057,855.801,839.420,872.868,865.739,0.000,0.000,0
1510777394.059,863.341,840.859,873.622,869.441,0.000,0.000,0
1510777394.061,864.369,843.258,873.622,874.924,0.000,0.000,0
1510777394.063,836.130,837.295,869.372,855.390,0.000,0.000,0
1510777394.065,835.376,837.980,870.674,834.485,0.000,0.000,0
1510777394.067,837.775,841.270,873.896,821.531,0.000,0.000,0
1510777394.069,836.335,839.557,873.690,817.144,0.000,0.000,0
1510777394.071,838.117,840.654,872.799,818.583,0.000,0.000,0
1510777394.073,843.190,840.791,872.936,827.905,0.000,0.000,0
1510777394.075,851.483,845.177,875.198,840.448,0.000,0.000,0
1510777394.077,850.660,844.149,873.553,849.016,0.000,0.000,0
1510777394.079,860.188,843.327,872.936,866.905,0.000,0.000,0
1510777394.081,864.780,844.081,873.759,876.500,0.000,0.000,0
1510777394.083,857.103,845.109,875.404,867.796,0.000,0.000,0
1510777394.085,851.894,848.262,876.295,847.713,0.000,0.000,0
1510777394.087,843.258,848.673,877.186,826.397,0.000,0.000,0
1510777394.089,841.339,846.000,878.419,827.905,0.000,0.000,0
1510777394.091,847.713,848.536,879.927,834.005,0.000,0.000,0
1510777394.093,852.991,848.056,879.311,834.005,0.000,0.000,0
1510777394.095,858.817,848.878,878.419,842.367,0.000,0.000,0
1510777394.097,859.365,847.439,878.214,860.051,0.000,0.000,0
1510777394.099,861.696,849.906,882.669,878.145,0.000,0.000,0
1510777394.101,864.848,848.878,882.395,874.376,0.000,0.000,0
1510777394.103,872.731,849.701,881.298,869.989,0.000,0.000,0
1510777394.105,867.864,851.963,879.242,848.536,0.000,0.000,0
1510777394.107,858.954,852.237,880.681,833.662,0.000,0.000,0
1510777394.109,861.284,855.253,884.931,837.158,0.000,0.000,0
1510777394.111,854.773,854.636,884.383,847.096,0.000,0.000,0
1510777394.113,856.486,853.745,881.709,853.950,0.000,0.000,0
1510777394.115,859.913,851.757,881.847,850.729,0.000,0.000,0
1510777394.117,868.755,854.979,885.822,857.515,0.000,0.000,0
1510777394.119,873.279,853.676,884.931,869.852,0.000,0.000,0
1510777394.121,874.170,853.196,883.629,880.750,0.000,0.000,0
1510777394.123,872.731,854.841,883.492,880.681,0.000,0.000,0
1510777394.125,863.203,855.664,883.423,866.973,0.000,0.000,0
1510777394.127,858.406,855.390,884.383,840.791,0.000,0.000,0
1510777394.129,866.562,856.624,884.040,832.634,0.000,0.000,0
1510777394.131,873.964,855.184,881.641,836.130,0.000,0.000,0
1510777394.133,875.746,853.882,881.298,850.935,0.000,0.000,0
1510777394.135,872.525,854.019,881.778,868.001,0.000,0.000,0
1510777394.137,875.198,854.636,880.818,881.230,0.000,0.000,0
1510777394.139,881.709,856.349,881.984,891.991,0.000,0.000,0
1510777394.141,886.165,857.103,882.943,903.368,0.000,0.000,0
1510777394.143,882.395,856.761,884.451,888.838,0.000,0.000,0
1510777394.145,868.413,851.620,881.572,841.065,0.000,0.000,0
1510777394.147,864.643,853.676,883.492,823.861,0.000,0.000,0
1510777394.149,865.465,854.773,883.080,830.578,0.000,0.000,0
1510777394.151,866.082,858.200,884.108,840.105,0.000,0.000,0
1510777394.153,867.796,857.926,884.725,845.040,0.000,0.000,0
1510777394.155,872.525,859.228,883.629,859.091,0.000,0.000,0
1510777394.157,874.444,861.079,885.068,878.694,0.000,0.000,0
1510777394.159,879.173,859.571,881.984,877.597,0.000,0.000,0
1510777394.161,877.254,858.954,879.242,877.186,0.000,0.000,0
1510777394.163,872.251,856.829,877.391,872.799,0.000,0.000,0
1510777394.165,881.367,859.639,880.681,865.534,0.000,0.000,0
1510777394.167,880.202,858.954,880.613,848.810,0.000,0.000,0
1510777394.169,873.964,857.789,882.806,847.645,0.000,0.000,0
1510777394.171,867.384,859.776,883.834,849.153,0.000,0.000,0
1510777394.173,860.462,860.736,882.189,845.588,0.000,0.000,0
1510777394.175,863.957,861.284,883.697,855.527,0.000,0.000,0
1510777394.177,871.291,857.652,882.601,867.590,0.000,0.000,0
1510777394.179,876.021,855.938,880.064,872.114,0.000,0.000,0
1510777394.181,877.460,855.938,880.887,879.311,0.000,0.000,0
1510777394.183,874.513,855.664,882.943,879.516,0.000,0.000,0
1510777394.185,869.852,857.309,883.423,865.397,0.000,0.000,0
1510777394.187,859.913,856.761,882.601,846.137,0.000,0.000,0
1510777394.189,862.929,854.362,879.722,836.335,0.000,0.000,0
1510777394.191,873.690,855.801,881.504,846.205,0.000,0.000,0
1510777394.193,864.643,852.991,876.843,840.379,0.000,0.000,0
1510777394.195,865.602,852.031,873.896,842.367,0.000,0.000,0
1510777394.197,872.594,853.402,873.210,862.724,0.000,0.000,0
1510777394.199,876.637,856.144,876.775,888.426,0.000,0.000,0
1510777394.201,882.875,853.265,877.323,899.667,0.000,0.000,0
1510777394.203,878.145,853.265,875.746,894.115,0.000,0.000,0
1510777394.205,857.789,852.922,873.896,857.446,0.000,0.000,0
1510777394.207,851.072,851.414,872.662,834.348,0.000,0.000,0
1510777394.209,858.200,853.882,874.924,835.513,0.000,0.000,0
1510777394.211,860.188,851.003,871.908,835.650,0.000,0.000,0
1510777394.213,866.082,849.838,868.344,837.089,0.000,0.000,0
1510777394.215,870.743,851.552,869.441,849.358,0.000,0.000,0
1510777394.217,866.905,852.168,871.908,868.550,0.000,0.000,0
1510777394.219,866.082,851.552,872.182,884.383,0.000,0.000,0
1510777394.221,866.699,849.975,870.332,892.539,0.000,0.000,0
1510777394.223,871.771,850.318,870.949,881.161,0.000,0.000,0
1510777394.225,879.242,851.414,873.827,851.277,0.000,0.000,0
1510777394.227,876.226,849.016,872.388,830.304,0.000,0.000,0
1510777394.229,851.277,848.810,869.646,832.292,0.000,0.000,0
1510777394.231,844.697,848.399,865.671,835.924,0.000,0.000,0
1510777394.233,853.813,848.262,865.260,839.351,0.000,0.000,0
1510777394.235,859.434,846.342,863.820,849.221,0.000,0.000,0
1510777394.237,874.239,846.274,865.739,874.376,0.000,0.000,0
1510777394.239,870.674,847.028,866.356,889.249,0.000,0.000,0
1510777394.241,869.989,844.903,865.739,880.270,0.000,0.000,0
1510777394.242,866.836,844.423,864.711,869.372,0.000,0.000,0
1510777394.244,854.430,844.286,862.655,847.645,0.000,0.000,0
1510777394.246,839.420,841.545,861.079,827.631,0.000,0.000,0
1510777394.248,849.358,841.407,862.655,825.437,0.000,0.000,0
1510777394.250,862.107,839.009,863.546,832.771,0.000,0.000,0
1510777394.252,851.894,837.226,863.546,842.367,0.000,0.000,0
1510777394.254,858.268,841.750,863.478,853.265,0.000,0.000,0
1510777394.256,860.873,844.149,863.409,866.699,0.000,0.000,0
1510777394.258,862.518,846.891,865.328,878.831,0.000,0.000,0
1510777394.260,859.708,843.532,863.546,866.219,0.000,0.000,0
1510777394.262,862.587,841.956,860.873,858.543,0.000,0.000,0
1510777394.264,863.409,844.560,861.627,855.047,0.000,0.000,0
1510777394.266,861.284,845.109,861.490,850.660,0.000,0.000,0
1510777394.268,867.247,845.520,859.913,840.242,0.000,0.000,0
1510777394.270,858.406,844.081,861.010,833.114,0.000,0.000,0
1510777394.272,849.838,844.560,863.683,838.049,0.000,0.000,0
1510777394.274,860.873,846.342,864.369,840.722,0.000,0.000,0
1510777394.276,867.727,845.314,864.506,857.309,0.000,0.000,0
1510777394.278,861.764,841.270,860.325,868.824,0.000,0.000,0
1510777394.280,864.026,842.778,861.147,877.666,0.000,0.000,0
1510777394.282,859.913,844.834,861.833,870.400,0.000,0.000,0
1510777394.284,855.390,843.875,859.776,855.801,0.000,0.000,0
1510777394.286,851.757,845.246,858.543,842.710,0.000,0.000,0
1510777394.288,847.439,846.205,860.805,839.214,0.000,0.000,0
1510777394.290,858.063,848.741,864.506,844.492,0.000,0.000,0
1510777394.292,852.922,846.754,863.615,838.803,0.000,0.000,0
1510777394.294,856.007,844.081,862.038,852.717,0.000,0.000,0
1510777394.296,869.441,842.230,861.010,867.110,0.000,0.000,0
1510777394.298,881.230,845.931,865.808,889.180,0.000,0.000,0
1510777394.300,881.161,844.492,863.889,889.043,0.000,0.000,0
1510777394.302,864.574,843.669,862.038,876.295,0.000,0.000,0
1510777394.304,841.339,842.915,860.667,858.474,0.000,0.000,0
1510777394.306,839.420,843.258,860.667,844.766,0.000,0.000,0
1510777394.308,851.346,845.246,861.901,840.859,0.000,0.000,0
1510777394.310,855.047,843.943,861.696,828.522,0.000,0.000,0
1510777394.312,858.268,842.778,862.518,826.328,0.000,0.000,0
1510777394.314,863.135,843.875,861.833,842.710,0.000,0.000,0
1510777394.316,858.474,844.218,861.627,858.063,0.000,0.000,0
1510777394.318,861.147,845.451,861.970,876.500,0.000,0.000,0
1510777394.320,870.400,845.657,861.353,887.878,0.000,0.000,0
1510777394.322,869.235,846.959,859.776,881.915,0.000,0.000,0
1510777394.324,863.409,849.906,862.655,864.369,0.000,0.000,0
1510777394.326,852.168,846.891,859.022,830.509,0.000,0.000,0
1510777394.328,840.242,846.274,857.994,812.757,0.000,0.000,0
1510777394.330,837.501,845.109,858.337,814.197,0.000,0.000,0
1510777394.332,844.903,847.028,859.434,828.864,0.000,0.000,0
1510777394.334,849.564,846.548,858.337,841.613,0.000,0.000,0
1510777394.336,860.873,844.355,856.486,857.789,0.000,0.000,0
1510777394.338,865.602,843.052,858.200,879.996,0.000,0.000,0
1510777394.340,869.783,845.931,860.599,882.943,0.000,0.000,0
1510777394.342,864.026,846.000,859.913,853.539,0.000,0.000,0
1510777394.344,853.196,844.286,858.748,835.924,0.000,0.000,0
1510777394.346,843.601,840.448,858.268,824.821,0.000,0.000,0
1510777394.348,841.270,842.641,861.147,825.917,0.000,0.000,0
1510777394.350,838.803,841.545,861.079,832.908,0.000,0.000,0
1510777394.352,844.766,839.831,860.325,840.448,0.000,0.000,0
1510777394.354,849.906,839.900,858.337,850.249,0.000,0.000,0
1510777394.356,854.430,840.174,857.926,867.110,0.000,0.000,0
1510777394.358,859.297,843.806,860.736,882.806,0.000,0.000,0
1510777394.360,853.265,842.504,860.393,871.634,0.000,0.000,0
1510777394.362,850.044,842.093,859.982,865.191,0.000,0.000,0
1510777394.364,863.546,844.012,860.119,857.857,0.000,0.000,0
1510777394.366,872.594,846.548,859.845,836.678,0.000,0.000,0
1510777394.368,859.160,846.000,858.954,829.755,0.000,0.000,0
1510777394.370,846.822,846.000,860.942,834.416,0.000,0.000,0
1510777394.372,852.237,845.520,859.091,835.376,0.000,0.000,0
1510777394.374,859.913,847.439,862.655,842.847,0.000,0.000,0
1510777394.376,860.256,844.697,860.051,843.601,0.000,0.000,0
1510777394.378,866.493,844.903,859.160,862.244,0.000,0.000,0
1510777394.380,868.892,846.342,860.188,871.017,0.000,0.000,0
1510777394.382,865.808,845.314,857.240,861.833,0.000,0.000,0
1510777394.384,856.349,846.617,856.966,850.112,0.000,0.000,0
1510777394.386,849.906,849.084,856.144,830.167,0.000,0.000,0
1510777394.388,843.806,846.205,856.212,816.047,0.000,0.000,0
1510777394.390,859.228,848.878,859.160,822.353,0.000,0.000,0
1510777394.392,856.829,845.726,859.571,816.870,0.000,0.000,0
1510777394.394,856.624,846.411,859.639,830.098,0.000,0.000,0
1510777394.396,856.692,845.040,857.515,850.386,0.000,0.000,0
1510777394.398,858.200,844.903,858.611,870.811,0.000,0.000,0
1510777394.400,860.119,842.573,857.789,874.581,0.000,0.000,0
1510777394.402,861.147,843.806,859.502,875.541,0.000,0.000,0
1510777394.404,855.801,844.560,860.051,856.624,0.000,0.000,0
1510777394.406,848.467,843.738,858.885,837.843,0.000,0.000,0
1510777394.408,846.959,846.000,859.845,822.147,0.000,0.000,0
1510777394.410,839.214,842.230,858.063,810.633,0.000,0.000,0
1510777394.412,843.327,842.298,857.789,821.531,0.000,0.000,0
1510777394.414,856.966,846.548,863.820,840.105,0.000,0.000,0
1510777394.416,862.655,846.342,863.615,851.414,0.000,0.000,0
1510777394.418,852.305,844.903,862.312,862.998,0.000,0.000,0
1510777394.420,851.620,843.052,863.683,864.094,0.000,0.000,0
1510777394.422,847.987,842.367,863.615,853.539,0.000,0.000,0
1510777394.424,844.903,845.246,863.135,828.659,0.000,0.000,0
1510777394.426,843.395,845.520,862.792,812.278,0.000,0.000,0
1510777394.428,841.407,846.617,861.901,807.754,0.000,0.000,0
1510777394.430,838.666,846.205,861.421,808.919,0.000,0.000,0
1510777394.432,846.411,848.467,862.381,815.773,0.000,0.000,0
1510777394.434,860.942,849.701,865.123,828.933,0.000,0.000,0
1510777394.436,859.091,850.181,867.659,846.479,0.000,0.000,0
1510777394.438,855.801,850.592,866.699,867.247,0.000,0.000,0
1510777394.440,857.926,848.262,862.312,866.973,0.000,0.000,0
1510777394.442,857.583,848.124,862.518,862.175,0.000,0.000,0
1510777394.444,856.898,849.769,865.739,844.355,0.000,0.000,0
1510777394.446,851.346,850.112,864.917,826.466,0.000,0.000,0
1510777394.448,847.576,848.810,862.107,827.768,0.000,0.000,0
1510777394.450,851.346,850.729,862.244,835.239,0.000,0.000,0
1510777394.452,861.010,851.963,861.627,846.342,0.000,0.000,0
1510777394.454,867.933,852.168,860.736,858.885,0.000,0.000,0
1510777394.456,873.279,853.813,863.615,871.908,0.000,0.000,0
1510777394.458,880.476,853.676,862.655,889.386,0.000,0.000,0
1510777394.460,871.840,852.785,861.421,893.567,0.000,0.000,0
1510777394.462,867.110,852.237,861.010,879.722,0.000,0.000,0
1510777394.464,864.643,856.349,864.574,865.877,0.000,0.000,0
1510777394.466,849.427,855.527,863.478,843.464,0.000,0.000,0
1510777394.468,847.370,856.829,864.300,833.457,0.000,0.000,0
1510777394.470,847.028,858.200,865.602,840.174,0.000,0.000,1
1510777394.472,850.386,857.309,863.409,842.847,0.000,0.000,0
1510777394.474,863.135,857.994,863.683,852.648,0.000,0.000,0
1510777394.476,878.214,859.297,867.590,870.880,0.000,0.000,0
1510777394.478,877.391,856.486,866.493,871.771,0.000,0.000,0
1510777394.480,874.170,855.938,865.739,878.762,0.000,0.000,0
1510777394.482,876.089,855.116,865.534,881.984,0.000,0.000,0
1510777394.484,869.304,853.402,864.711,861.079,0.000,0.000,0
1510777394.486,867.453,852.237,864.094,842.093,0.000,0.000,0
1510777394.488,868.344,854.019,865.945,834.211,0.000,0.000,0
1510777394.490,858.406,851.483,864.643,820.365,0.000,0.000,0
1510777394.492,851.140,850.249,865.739,828.590,0.000,0.000,0
1510777394.494,853.745,847.645,865.328,840.722,0.000,0.000,0
1510777394.496,858.268,846.617,864.574,864.163,0.000,0.000,0
1510777394.498,866.699,847.919,866.151,878.488,0.000,0.000,0
1510777394.500,864.232,848.673,866.151,877.734,0.000,0.000,0
1510777394.502,870.537,851.552,869.441,888.495,0.000,0.000,0
1510777394.504,866.356,853.745,870.811,874.170,0.000,0.000,0
1510777394.506,852.031,854.636,871.223,845.040,0.000,0.000,0
1510777394.508,850.318,854.979,871.360,831.880,0.000,0.000,0
1510777394.510,858.063,857.377,872.182,828.179,0.000,0.000,0
1510777394.512,853.265,855.458,871.154,815.568,0.000,0.000,0
1510777394.514,854.156,853.402,870.469,831.400,0.000,0.000,0
1510777394.516,867.453,857.035,873.210,859.434,0.000,0.000,0
1510777394.518,873.347,858.337,874.239,880.544,0.000,0.000,0
1510777394.520,880.133,858.268,873.964,892.128,0.000,0.000,0
