timestamps,TP9,FP1,FP2,TP10,n/a,n/a,Marker0
1510777527.095,746.684,721.598,785.067,720.227,0.000,0.000,0
1510777527.097,743.874,724.614,782.531,736.814,0.000,0.000,0
1510777527.099,739.487,721.735,784.861,754.224,0.000,0.000,0
1510777527.101,729.549,720.227,787.740,737.911,0.000,0.000,0
1510777527.103,699.322,717.554,785.067,696.992,0.000,0.000,0
1510777527.105,703.572,713.030,786.986,691.714,0.000,0.000,0
1510777527.107,696.306,711.317,786.712,679.788,0.000,0.000,0
1510777527.109,682.804,712.414,785.547,662.447,0.000,0.000,0
1510777527.111,668.822,713.030,790.002,666.560,0.000,0.000,0
1510777527.113,676.087,715.635,793.018,672.043,0.000,0.000,0
1510777527.115,691.646,715.841,792.195,669.096,0.000,0.000,0
1510777527.117,699.802,713.510,791.578,661.556,0.000,0.000,0
1510777527.119,684.792,714.744,789.659,665.189,0.000,0.000,0
1510777527.121,662.310,712.208,790.482,661.419,0.000,0.000,0
1510777527.123,648.739,710.220,794.320,655.799,0.000,0.000,0
1510777527.125,648.808,715.841,796.787,640.172,0.000,0.000,0
1510777527.127,656.827,715.841,799.598,642.708,0.000,0.000,0
1510777527.129,656.004,719.131,799.460,650.727,0.000,0.000,0
1510777527.131,649.699,721.324,800.694,642.776,0.000,0.000,0
1510777527.133,660.528,719.199,801.037,638.115,0.000,0.000,0
1510777527.135,657.992,714.812,804.601,654.222,0.000,0.000,0
1510777527.137,646.203,721.667,802.545,645.860,0.000,0.000,0
1510777527.139,628.657,714.264,800.352,642.365,0.000,0.000,0
1510777527.141,623.722,700.145,807.000,640.309,0.000,0.000,0
1510777527.143,624.064,708.164,814.265,631.604,0.000,0.000,0
1510777527.145,652.235,717.760,816.527,633.523,0.000,0.000,0
1510777527.147,693.633,734.621,816.390,650.041,0.000,0.000,0
1510777527.149,647.917,747.164,814.128,651.412,0.000,0.000,0
1510777527.151,623.790,752.784,810.496,628.108,0.000,0.000,0
1510777527.153,658.815,751.756,809.467,621.460,0.000,0.000,0
1510777527.155,650.316,750.865,804.738,607.066,0.000,0.000,0
1510777527.157,629.959,747.506,801.380,608.232,0.000,0.000,0
1510777527.159,645.655,747.849,808.782,660.597,0.000,0.000,0
1510777527.161,674.510,745.930,808.645,664.778,0.000,0.000,0
1510777527.163,657.786,740.378,806.383,636.607,0.000,0.000,0
1510777527.165,639.075,736.883,805.355,626.189,0.000,0.000,0
1510777527.167,628.383,738.802,807.411,620.706,0.000,0.000,0
1510777527.169,646.614,743.531,808.576,630.302,0.000,0.000,0
1510777527.171,675.264,742.229,805.766,637.704,0.000,0.000,0
1510777527.173,667.793,734.004,805.218,634.140,0.000,0.000,0
1510777527.175,657.992,723.380,805.355,643.667,0.000,0.000,0
1510777527.177,666.080,726.944,802.408,660.323,0.000,0.000,0
1510777527.179,681.365,730.851,797.130,672.317,0.000,0.000,0
1510777527.181,679.994,730.234,794.937,667.177,0.000,0.000,0
1510777527.183,673.757,729.549,795.759,679.034,0.000,0.000,0
1510777527.185,675.470,733.798,798.021,669.438,0.000,0.000,0
1510777527.187,670.261,735.923,797.610,642.845,0.000,0.000,0
1510777527.189,671.769,738.322,795.896,644.901,0.000,0.000,0
1510777527.191,669.644,738.870,793.223,646.203,0.000,0.000,0
1510777527.193,671.974,736.060,790.276,654.839,0.000,0.000,0
1510777527.195,680.748,726.807,788.768,654.908,0.000,0.000,0
1510777527.197,696.649,729.069,788.425,671.632,0.000,0.000,0
1510777527.199,699.459,731.331,787.192,707.890,0.000,0.000,0
1510777527.201,690.275,731.468,789.316,721.598,0.000,0.000,0
1510777527.203,704.806,739.556,789.042,703.435,0.000,0.000,0
1510777527.205,708.849,744.422,792.332,696.992,0.000,0.000,0
1510777527.207,713.990,745.519,793.497,692.537,0.000,0.000,0
1510777527.209,722.146,738.253,790.413,694.524,0.000,0.000,0
1510777527.211,704.600,732.153,788.700,697.060,0.000,0.000,0
1510777527.213,701.721,725.436,792.606,705.491,0.000,0.000,0
1510777527.215,726.190,728.247,797.130,734.347,0.000,0.000,0
1510777527.217,741.612,734.004,798.295,735.717,0.000,0.000,0
1510777527.219,748.260,732.633,796.308,748.055,0.000,0.000,0
1510777527.221,739.350,732.290,795.074,756.622,0.000,0.000,0
1510777527.223,760.255,737.774,796.033,784.176,0.000,0.000,0
1510777527.225,753.744,739.898,797.199,767.932,0.000,0.000,0
1510777527.227,753.881,735.512,796.239,739.419,0.000,0.000,0
1510777527.229,744.491,731.125,792.606,725.779,0.000,0.000,0
1510777527.231,754.566,733.867,788.220,718.993,0.000,0.000,0
1510777527.233,762.243,737.157,787.192,734.484,0.000,0.000,0
1510777527.235,766.287,735.443,789.042,743.737,0.000,0.000,0
1510777527.237,788.014,737.225,789.865,766.766,0.000,0.000,0
1510777527.239,790.207,739.282,790.345,791.647,0.000,0.000,0
1510777527.241,786.575,740.789,790.139,808.234,0.000,0.000,0
1510777527.243,793.703,741.818,789.591,809.125,0.000,0.000,0
1510777527.245,790.413,737.294,788.425,797.199,0.000,0.000,0
1510777527.247,799.255,732.565,790.276,790.139,0.000,0.000,0
1510777527.249,805.286,735.649,785.478,766.492,0.000,0.000,0
1510777527.251,800.900,739.556,781.983,778.007,0.000,0.000,0
1510777527.253,803.573,739.487,783.765,791.990,0.000,0.000,0
1510777527.255,791.236,742.572,781.845,791.647,0.000,0.000,0
1510777527.257,806.520,745.108,780.269,801.928,0.000,0.000,0
1510777527.259,809.193,744.422,779.584,807.548,0.000,0.000,0
1510777527.261,820.365,739.419,782.051,821.462,0.000,0.000,0
1510777527.263,824.546,738.870,786.986,836.130,0.000,0.000,0
1510777527.265,815.773,743.463,787.946,820.365,0.000,0.000,0
1510777527.267,804.807,745.930,784.930,807.411,0.000,0.000,0
1510777527.269,811.249,746.410,784.793,805.012,0.000,0.000,0
1510777527.271,823.039,744.422,784.793,814.814,0.000,0.000,0
1510777527.273,835.650,735.375,786.095,818.926,0.000,0.000,0
1510777527.275,830.304,715.635,782.668,823.176,0.000,0.000,0
1510777527.277,839.557,711.248,789.796,834.896,0.000,0.000,0
1510777527.279,846.479,712.208,788.151,852.922,0.000,0.000,0
1510777527.281,842.024,710.015,783.628,862.244,0.000,0.000,0
1510777527.283,854.841,710.220,789.385,867.796,0.000,0.000,0
1510777527.285,846.342,714.264,789.453,828.933,0.000,0.000,0
1510777527.286,823.930,716.595,789.522,807.617,0.000,0.000,0
1510777527.288,812.689,711.728,788.631,810.153,0.000,0.000,0
1510777527.290,813.717,708.918,787.397,817.350,0.000,0.000,0
1510777527.292,829.481,705.560,786.164,811.249,0.000,0.000,0
1510777527.294,839.283,702.544,785.204,818.241,0.000,0.000,0
1510777527.296,828.316,699.802,785.821,828.864,0.000,0.000,0
1510777527.298,835.444,705.354,790.207,849.358,0.000,0.000,0
1510777527.300,827.014,708.027,793.018,844.972,0.000,0.000,0
1510777527.302,834.553,706.656,792.743,842.298,0.000,0.000,0
1510777527.304,847.782,707.547,791.852,831.743,0.000,0.000,0
1510777527.306,843.669,715.087,788.837,819.337,0.000,0.000,0
1510777527.308,831.743,719.405,786.232,830.304,0.000,0.000,0
1510777527.310,850.935,718.171,786.780,837.501,0.000,0.000,0
1510777527.312,846.342,715.978,785.478,837.089,0.000,0.000,0
1510777527.314,850.112,716.389,784.313,844.834,0.000,0.000,0
1510777527.316,852.305,717.691,780.543,852.305,0.000,0.000,0
1510777527.318,874.376,718.445,781.777,848.673,0.000,0.000,0
1510777527.320,884.588,720.364,784.519,856.281,0.000,0.000,0
1510777527.322,839.557,716.046,785.821,855.184,0.000,0.000,0
1510777527.324,826.328,719.473,790.207,838.186,0.000,0.000,0
1510777527.326,824.889,721.255,796.102,823.655,0.000,0.000,0
1510777527.328,825.095,721.598,799.255,814.882,0.000,0.000,0
1510777527.330,823.313,719.542,801.380,812.826,0.000,0.000,0
1510777527.332,836.884,721.461,799.598,811.318,0.000,0.000,0
1510777527.334,836.678,721.255,796.170,809.399,0.000,0.000,0
1510777527.336,828.248,722.078,794.594,812.826,0.000,0.000,0
1510777527.338,831.195,725.299,803.573,851.346,0.000,0.000,0
1510777527.340,836.747,726.602,807.891,872.114,0.000,0.000,0
1510777527.342,837.501,721.872,806.657,858.885,0.000,0.000,0
1510777527.344,849.290,720.433,795.074,845.863,0.000,0.000,0
1510777527.346,836.267,715.429,776.568,840.722,0.000,0.000,0
1510777527.348,841.270,727.150,773.689,831.469,0.000,0.000,0
1510777527.350,850.249,742.023,794.526,834.828,0.000,0.000,0
1510777527.352,840.585,748.877,800.077,828.522,0.000,0.000,0
1510777527.354,841.133,749.563,806.109,843.806,0.000,0.000,0
1510777527.356,844.423,750.317,814.608,850.112,0.000,0.000,0
1510777527.358,854.499,749.700,820.503,852.717,0.000,0.000,0
1510777527.360,848.536,748.603,821.736,855.321,0.000,0.000,0
1510777527.362,840.037,746.136,825.095,843.395,0.000,0.000,0
1510777527.364,840.859,746.067,827.425,828.248,0.000,0.000,0
1510777527.366,837.364,746.821,825.095,818.926,0.000,0.000,0
1510777527.368,845.588,745.793,821.873,795.074,0.000,0.000,0
1510777527.370,836.198,745.108,821.188,793.772,0.000,0.000,0
1510777527.372,842.710,744.628,817.624,802.956,0.000,0.000,0
1510777527.374,844.697,747.506,815.636,812.620,0.000,0.000,0
1510777527.376,851.826,746.753,814.128,823.998,0.000,0.000,0
1510777527.378,857.583,738.528,816.390,846.754,0.000,0.000,0
1510777527.380,862.724,740.789,818.583,849.906,0.000,0.000,0
1510777527.382,869.441,745.656,818.104,852.854,0.000,0.000,0
1510777527.384,860.873,748.672,819.063,836.404,0.000,0.000,0
1510777527.386,851.277,751.962,821.325,837.295,0.000,0.000,0
1510777527.388,835.650,751.482,822.490,828.385,0.000,0.000,0
1510777527.390,827.973,751.962,823.930,816.321,0.000,0.000,0
1510777527.392,842.573,752.441,825.369,821.873,0.000,0.000,0
1510777527.394,838.666,747.918,822.833,832.908,0.000,0.000,0
1510777527.396,844.012,741.681,821.668,833.936,0.000,0.000,0
1510777527.398,847.782,742.777,820.982,835.856,0.000,0.000,0
1510777527.400,846.959,745.382,819.132,846.685,0.000,0.000,0
1510777527.402,828.727,748.877,819.954,832.017,0.000,0.000,0
1510777527.404,831.400,750.865,821.668,830.030,0.000,0.000,0
1510777527.406,841.613,754.155,820.982,829.618,0.000,0.000,0
1510777527.408,830.989,750.865,819.200,811.455,0.000,0.000,0
1510777527.410,839.351,750.659,818.995,813.374,0.000,0.000,0
1510777527.412,823.930,750.317,814.882,815.979,0.000,0.000,0
1510777527.414,842.436,752.304,812.826,832.292,0.000,0.000,0
1510777527.416,839.420,752.853,813.991,846.411,0.000,0.000,0
1510777527.418,836.952,750.934,814.334,850.935,0.000,0.000,0
1510777527.420,837.226,746.958,815.568,860.530,0.000,0.000,0
1510777527.422,848.056,748.055,814.471,859.708,0.000,0.000,0
1510777527.424,854.156,751.619,809.810,845.657,0.000,0.000,0
1510777527.426,844.903,750.659,804.532,824.204,0.000,0.000,0
1510777527.428,830.715,752.990,800.831,803.641,0.000,0.000,0
1510777527.430,831.469,755.937,800.694,819.474,0.000,0.000,0
1510777527.432,850.455,754.292,799.872,827.288,0.000,0.000,0
1510777527.434,851.346,754.703,802.339,839.009,0.000,0.000,0
1510777527.436,837.569,760.872,800.831,850.112,0.000,0.000,0
1510777527.438,859.845,762.723,801.311,851.689,0.000,0.000,0
1510777527.440,857.583,759.707,797.336,844.766,0.000,0.000,0
1510777527.442,838.529,757.445,796.033,845.794,0.000,0.000,0
1510777527.444,838.871,754.635,794.457,843.190,0.000,0.000,0
1510777527.446,833.525,754.635,791.715,835.993,0.000,0.000,0
1510777527.448,817.418,753.332,786.712,825.575,0.000,0.000,0
1510777527.450,815.979,751.413,788.151,808.782,0.000,0.000,0
1510777527.452,822.696,752.647,787.055,802.750,0.000,0.000,0
1510777527.454,820.503,752.716,786.849,807.754,0.000,0.000,0
1510777527.456,820.365,753.127,784.244,811.044,0.000,0.000,0
1510777527.458,828.727,757.376,781.983,823.107,0.000,0.000,0
1510777527.460,848.056,755.868,782.394,845.520,0.000,0.000,0
1510777527.462,845.931,747.301,784.039,851.552,0.000,0.000,0
1510777527.464,831.675,725.368,788.837,839.900,0.000,0.000,0
1510777527.466,842.504,729.891,792.332,836.747,0.000,0.000,0
1510777527.468,839.077,746.067,794.251,816.870,0.000,0.000,0
1510777527.470,832.634,759.364,791.852,822.353,0.000,0.000,0
1510777527.472,836.130,771.222,784.998,818.995,0.000,0.000,0
1510777527.474,836.130,778.693,781.503,823.792,0.000,0.000,0
1510777527.476,829.207,775.540,786.506,825.506,0.000,0.000,0
1510777527.478,828.864,772.318,789.933,832.292,0.000,0.000,0
1510777527.480,833.868,769.645,790.002,853.539,0.000,0.000,0
1510777527.482,839.900,771.907,785.821,846.685,0.000,0.000,0
1510777527.484,839.146,773.963,781.571,831.538,0.000,0.000,0
1510777527.486,817.692,769.165,784.724,825.437,0.000,0.000,0
1510777527.488,822.627,763.751,785.821,806.794,0.000,0.000,0
1510777527.490,826.328,763.751,790.002,806.657,0.000,0.000,0
1510777527.492,822.422,764.093,793.155,805.972,0.000,0.000,0
1510777527.494,822.422,758.679,796.787,817.213,0.000,0.000,0
1510777527.496,837.775,754.635,800.077,836.952,0.000,0.000,0
1510777527.498,861.558,758.336,796.856,856.692,0.000,0.000,0
1510777527.500,851.277,762.928,793.155,846.411,0.000,0.000,0
1510777527.502,846.754,758.884,784.998,836.610,0.000,0.000,0
1510777527.504,831.880,752.921,776.979,815.430,0.000,0.000,0
1510777527.506,806.040,748.603,775.334,815.293,0.000,0.000,0
1510777527.508,811.798,751.893,779.241,816.459,0.000,0.000,0
1510777527.510,805.903,757.308,785.341,803.573,0.000,0.000,0
1510777527.512,815.088,762.448,788.288,808.028,0.000,0.000,0
1510777527.514,823.518,760.324,790.345,825.437,0.000,0.000,0
1510777527.516,830.784,760.049,792.812,833.594,0.000,0.000,0
1510777527.518,835.170,760.735,794.046,835.102,0.000,0.000,0
1510777527.520,842.710,762.106,794.868,846.479,0.000,0.000,0
1510777527.522,840.928,760.187,794.731,850.798,0.000,0.000,0
1510777527.524,852.100,761.694,793.909,841.407,0.000,0.000,0
1510777527.526,839.557,760.324,796.719,822.559,0.000,0.000,0
1510777527.528,823.861,757.925,795.279,815.362,0.000,0.000,0
1510777527.530,822.833,754.292,792.469,817.213,0.000,0.000,0
1510777527.532,834.485,754.429,790.345,806.452,0.000,0.000,0
1510777527.534,828.522,759.638,788.768,805.286,0.000,0.000,0
1510777527.536,828.453,760.940,789.453,812.003,0.000,0.000,0
1510777527.538,840.379,761.215,787.534,821.325,0.000,0.000,0
1510777527.540,852.374,761.352,786.712,836.541,0.000,0.000,0
1510777527.542,853.676,763.408,789.933,847.576,0.000,0.000,0
1510777527.544,845.657,762.723,789.179,834.279,0.000,0.000,0
1510777527.546,832.771,757.925,788.494,816.664,0.000,0.000,0
1510777527.548,824.615,752.373,786.986,810.633,0.000,0.000,0
1510777527.550,828.453,752.784,785.410,796.445,0.000,0.000,0
1510777527.552,835.307,750.042,786.575,799.049,0.000,0.000,0
1510777527.554,850.866,752.167,784.998,810.221,0.000,0.000,0
1510777527.556,841.407,753.470,780.749,827.082,0.000,0.000,0
1510777527.558,842.641,754.909,783.353,851.894,0.000,0.000,0
1510777527.560,854.156,755.526,785.410,857.446,0.000,0.000,0
1510777527.562,856.898,755.046,786.643,843.601,0.000,0.000,0
1510777527.564,859.022,758.267,785.067,845.520,0.000,0.000,0
1510777527.566,851.072,759.981,785.135,840.174,0.000,0.000,0
1510777527.568,817.213,757.993,785.341,808.919,0.000,0.000,0
1510777527.570,809.673,756.897,781.366,786.232,0.000,0.000,0
1510777527.572,819.406,762.174,778.624,796.513,0.000,0.000,0
1510777527.574,826.123,766.013,777.322,797.610,0.000,0.000,0
1510777527.576,844.012,765.327,779.172,807.754,0.000,0.000,0
1510777527.578,865.945,764.779,782.531,827.082,0.000,0.000,0
1510777527.580,830.578,761.557,783.559,826.123,0.000,0.000,0
1510777527.582,841.133,754.772,785.547,852.443,0.000,0.000,0
1510777527.584,848.604,745.450,789.248,847.987,0.000,0.000,0
1510777527.586,842.436,731.605,794.046,817.350,0.000,0.000,0
1510777527.588,836.952,742.366,799.323,819.954,0.000,0.000,0
1510777527.590,822.627,755.389,800.489,798.775,0.000,0.000,0
1510777527.592,810.084,755.663,801.105,788.837,0.000,0.000,0
1510777527.594,818.378,761.694,798.569,796.102,0.000,0.000,0
1510777527.596,834.074,769.028,799.460,810.564,0.000,0.000,0
1510777527.598,839.694,771.564,803.025,844.492,0.000,0.000,0
1510777527.600,846.822,771.496,802.202,859.160,0.000,0.000,0
1510777527.602,836.404,772.592,804.327,853.265,0.000,0.000,0
1510777527.604,821.805,774.717,806.109,815.842,0.000,0.000,0
1510777527.606,830.647,776.979,807.685,802.956,0.000,0.000,0
1510777527.608,827.836,779.926,807.617,786.095,0.000,0.000,0
1510777527.610,819.543,776.842,808.988,794.868,0.000,0.000,0
1510777527.612,823.861,776.568,815.773,812.483,0.000,0.000,0
1510777527.614,840.791,776.225,820.365,826.534,0.000,0.000,0
1510777527.616,842.778,774.717,818.035,828.179,0.000,0.000,0
1510777527.618,838.117,771.770,814.265,834.622,0.000,0.000,0
1510777527.620,839.625,768.343,813.785,852.100,0.000,0.000,0
1510777527.622,835.993,767.383,812.346,815.773,0.000,0.000,0
1510777527.624,822.696,771.016,812.552,801.448,0.000,0.000,0
1510777527.626,825.163,774.580,814.814,808.782,0.000,0.000,0
1510777527.628,831.880,774.717,820.160,812.894,0.000,0.000,0
1510777527.630,828.522,772.181,821.325,809.810,0.000,0.000,0
1510777527.632,823.313,776.225,825.095,799.666,0.000,0.000,0
1510777527.634,828.864,775.951,826.534,803.093,0.000,0.000,0
1510777527.636,843.464,776.362,827.494,809.125,0.000,0.000,0
1510777527.638,848.673,779.241,827.836,816.321,0.000,0.000,0
1510777527.640,841.202,777.939,833.388,830.235,0.000,0.000,0
1510777527.642,841.133,777.664,839.214,846.754,0.000,0.000,0
1510777527.644,844.697,778.007,842.504,835.719,0.000,0.000,0
1510777527.646,838.666,776.636,842.230,819.132,0.000,0.000,0
1510777527.648,828.659,777.596,839.900,822.901,0.000,0.000,0
1510777527.650,823.176,779.789,837.021,806.863,0.000,0.000,0
1510777527.652,821.393,781.503,836.884,795.622,0.000,0.000,0
1510777527.654,836.610,780.269,837.501,805.561,0.000,0.000,0
1510777527.656,835.307,778.898,836.884,824.683,0.000,0.000,0
1510777527.658,843.121,780.543,837.226,842.024,0.000,0.000,0
1510777527.660,861.147,777.527,840.105,838.392,0.000,0.000,0
1510777527.662,863.272,777.185,840.174,848.056,0.000,0.000,0
1510777527.664,856.212,778.555,839.351,871.428,0.000,0.000,0
1510777527.666,823.313,782.120,839.283,838.186,0.000,0.000,0
1510777527.668,816.527,781.160,839.625,804.532,0.000,0.000,0
1510777527.670,826.191,779.995,840.037,790.550,0.000,0.000,0
1510777527.672,842.024,782.531,839.146,792.332,0.000,0.000,0
1510777527.674,837.089,785.889,839.831,801.859,0.000,0.000,0
1510777527.676,819.680,783.833,839.762,818.926,0.000,0.000,0
1510777527.678,828.590,778.830,839.625,828.864,0.000,0.000,0
1510777527.680,840.448,775.814,841.819,850.181,0.000,0.000,0
1510777527.682,839.762,777.939,844.286,847.439,0.000,0.000,0
1510777527.684,837.980,781.434,843.601,839.625,0.000,0.000,0
1510777527.686,836.678,781.503,841.339,841.133,0.000,0.000,0
1510777527.688,848.604,775.608,841.819,839.900,0.000,0.000,0
1510777527.690,856.144,776.499,847.439,826.260,0.000,0.000,0
1510777527.692,856.761,780.475,848.467,817.555,0.000,0.000,0
1510777527.694,837.295,771.359,844.972,828.111,0.000,0.000,0
1510777527.696,823.518,770.536,849.358,836.678,0.000,0.000,0
1510777527.698,826.603,771.016,855.527,842.778,0.000,0.000,0
1510777527.700,839.077,775.266,858.406,839.077,0.000,0.000,0
1510777527.702,854.088,782.051,862.175,847.439,0.000,0.000,0
1510777527.704,840.996,786.301,864.985,852.305,0.000,0.000,0
1510777527.706,832.703,788.974,865.260,840.654,0.000,0.000,0
1510777527.708,842.436,790.756,864.643,821.393,0.000,0.000,0
1510777527.710,843.395,789.453,864.437,801.242,0.000,0.000,0
1510777527.712,841.545,787.466,864.232,794.663,0.000,0.000,0
1510777527.714,848.056,787.534,865.534,803.230,0.000,0.000,0
1510777527.716,845.246,787.671,868.618,808.508,0.000,0.000,0
1510777527.718,837.364,787.260,868.687,817.761,0.000,0.000,0
1510777527.720,840.722,786.506,866.973,832.703,0.000,0.000,0
1510777527.722,838.186,779.926,865.260,837.158,0.000,0.000,0
1510777527.724,842.298,776.431,864.643,836.198,0.000,0.000,0
1510777527.726,854.567,779.721,866.425,834.279,0.000,0.000,0
1510777527.728,837.706,782.805,865.808,834.485,0.000,0.000,0
1510777527.730,835.719,780.200,863.615,813.306,0.000,0.000,0
1510777527.732,835.993,778.624,866.836,807.754,0.000,0.000,0
1510777527.734,845.177,781.297,864.917,812.278,0.000,0.000,0
1510777527.736,838.940,784.450,861.284,806.520,0.000,0.000,0
1510777527.738,836.061,781.914,860.325,819.063,0.000,0.000,0
1510777527.740,842.504,778.144,861.558,838.597,0.000,0.000,0
1510777527.742,851.620,778.761,860.942,844.903,0.000,0.000,0
1510777527.744,858.406,778.898,860.325,840.516,0.000,0.000,0
1510777527.746,860.942,777.459,858.474,847.508,0.000,0.000,0
1510777527.748,856.212,777.116,856.692,847.302,0.000,0.000,0
1510777527.750,836.473,777.664,857.377,814.608,0.000,0.000,0
1510777527.752,829.893,776.568,861.901,804.327,0.000,0.000,0
1510777527.754,857.515,774.580,864.780,802.408,0.000,0.000,0
1510777527.756,850.044,772.729,865.123,818.104,0.000,0.000,0
1510777527.758,850.249,770.262,861.558,818.309,0.000,0.000,0
1510777527.760,868.275,769.988,859.639,839.762,0.000,0.000,0
1510777527.762,872.731,771.290,857.789,835.650,0.000,0.000,0
1510777527.764,859.160,773.552,856.007,836.473,0.000,0.000,0
1510777527.766,844.903,771.085,856.418,828.248,0.000,0.000,0
1510777527.768,848.056,771.839,860.462,805.561,0.000,0.000,0
1510777527.770,836.473,768.069,865.123,802.408,0.000,0.000,0
1510777527.772,828.248,767.795,865.123,801.380,0.000,0.000,0
1510777527.774,818.995,767.315,867.659,800.489,0.000,0.000,0
1510777527.776,816.527,762.585,869.167,804.190,0.000,0.000,0
1510777527.778,817.144,761.489,868.138,819.543,0.000,0.000,0
1510777527.780,827.631,759.090,868.275,837.706,0.000,0.000,0
1510777527.782,850.866,762.106,871.497,860.667,0.000,0.000,0
1510777527.784,853.265,763.682,871.565,867.384,0.000,0.000,0
1510777527.786,831.812,766.492,869.441,824.752,0.000,0.000,0
1510777527.788,826.191,769.508,868.824,797.062,0.000,0.000,0
1510777527.790,818.309,768.960,867.590,791.990,0.000,0.000,0
1510777527.792,821.873,768.206,869.578,797.062,0.000,0.000,0
1510777527.794,826.397,768.206,870.057,812.483,0.000,0.000,0
1510777527.796,827.357,769.577,869.783,816.184,0.000,0.000,0
1510777527.798,831.263,771.222,871.360,822.559,0.000,0.000,0
1510777527.800,835.719,771.496,869.029,838.117,0.000,0.000,0
1510777527.802,843.738,768.069,867.110,853.334,0.000,0.000,0
1510777527.804,840.928,767.383,866.356,841.682,0.000,0.000,0
1510777527.806,838.255,769.302,867.247,827.836,0.000,0.000,0
1510777527.808,844.903,770.193,867.042,819.817,0.000,0.000,0
1510777527.810,835.307,769.714,867.110,820.297,0.000,0.000,0
1510777527.812,833.799,768.343,865.945,815.773,0.000,0.000,0
1510777527.814,840.379,766.835,865.465,828.042,0.000,0.000,0
1510777527.816,847.645,769.577,868.618,833.936,0.000,0.000,0
1510777527.818,834.142,772.455,869.578,844.218,0.000,0.000,0
1510777527.820,836.198,773.346,871.634,849.290,0.000,0.000,0
1510777527.822,847.713,768.686,873.279,855.938,0.000,0.000,0
1510777527.824,842.367,767.452,873.964,852.305,0.000,0.000,0
1510777527.826,832.429,765.464,874.239,843.052,0.000,0.000,0
1510777527.828,836.473,764.299,875.130,834.759,0.000,0.000,0
1510777527.830,838.734,767.246,877.391,843.669,0.000,0.000,0
1510777527.832,837.775,772.044,876.980,838.186,0.000,0.000,0
1510777527.834,839.283,772.935,874.718,830.989,0.000,0.000,0
1510777527.836,841.065,774.169,873.759,831.400,0.000,0.000,0
1510777527.838,840.928,769.645,873.416,846.548,0.000,0.000,0
1510777527.840,860.119,767.520,872.799,864.917,0.000,0.000,0
1510777527.842,859.297,768.343,873.690,883.560,0.000,0.000,0
1510777527.844,850.523,768.274,873.827,876.089,0.000,0.000,0
1510777527.846,833.799,768.343,870.537,851.277,0.000,0.000,0
1510777527.848,852.717,769.988,871.703,834.622,0.000,0.000,0
1510777527.850,839.557,769.508,873.416,836.335,0.000,0.000,0
1510777527.852,815.979,769.028,872.182,826.123,0.000,0.000,0
1510777527.854,821.188,767.041,869.578,828.933,0.000,0.000,0
1510777527.856,826.808,766.698,867.316,832.977,0.000,0.000,0
1510777527.858,833.799,768.823,868.892,844.012,0.000,0.000,0
1510777527.860,844.149,770.056,868.961,851.209,0.000,0.000,0
1510777527.862,849.290,772.250,867.316,857.103,0.000,0.000,0
1510777527.864,847.919,771.222,866.973,868.001,0.000,0.000,0
1510777527.866,852.443,773.415,867.590,858.200,0.000,0.000,0
1510777527.868,887.398,779.104,870.811,862.107,0.000,0.000,0
1510777527.870,872.662,780.543,876.295,873.073,0.000,0.000,0
1510777527.872,832.223,777.322,875.609,849.906,0.000,0.000,0
1510777527.874,822.490,774.717,877.460,846.822,0.000,0.000,0
1510777527.876,819.817,774.717,873.210,828.316,0.000,0.000,0
1510777527.878,824.752,774.717,873.416,833.457,0.000,0.000,0
1510777527.880,837.364,771.290,871.223,855.801,0.000,0.000,0
1510777527.882,848.741,770.673,868.207,860.119,0.000,0.000,0
1510777527.884,849.084,773.072,869.578,856.212,0.000,0.000,0
1510777527.886,844.355,775.197,865.465,854.773,0.000,0.000,0
1510777527.888,850.798,775.334,865.739,846.068,0.000,0.000,0
1510777527.890,842.504,775.334,865.739,813.100,0.000,0.000,0
1510777527.892,840.448,776.362,864.848,814.402,0.000,0.000,0
1510777527.894,836.678,776.362,866.562,841.613,0.000,0.000,0
1510777527.896,837.226,775.471,868.481,853.882,0.000,0.000,0
1510777527.898,854.362,775.334,869.235,882.463,0.000,0.000,0
1510777527.900,867.933,778.624,868.275,878.557,0.000,0.000,0
1510777527.902,852.580,777.253,867.659,864.848,0.000,0.000,0
1510777527.903,834.485,774.649,862.929,850.729,0.000,0.000,0
1510777527.905,827.494,776.157,858.748,841.407,0.000,0.000,0
1510777527.907,837.089,778.761,858.817,826.191,0.000,0.000,0
1510777527.909,843.258,781.503,860.462,818.652,0.000,0.000,0
1510777527.911,835.033,779.241,860.805,801.174,0.000,0.000,0
1510777527.913,823.587,777.185,862.449,800.352,0.000,0.000,0
1510777527.915,827.631,773.072,862.107,818.241,0.000,0.000,0
1510777527.917,830.578,773.483,859.913,825.369,0.000,0.000,0
1510777527.919,830.852,776.979,857.857,835.033,0.000,0.000,0
1510777527.921,835.719,778.213,857.103,842.230,0.000,0.000,0
1510777527.923,841.065,777.870,856.555,834.690,0.000,0.000,0
1510777527.925,834.965,777.459,859.160,838.940,0.000,0.000,0
1510777527.927,837.432,773.346,858.885,845.246,0.000,0.000,0
1510777527.929,837.089,771.564,860.462,832.292,0.000,0.000,0
1510777527.931,829.618,771.359,862.518,826.877,0.000,0.000,0
1510777527.933,827.082,771.564,862.175,830.647,0.000,0.000,0
1510777527.935,833.594,769.165,859.434,834.142,0.000,0.000,0
1510777527.937,832.017,767.178,857.515,835.719,0.000,0.000,0
1510777527.939,843.669,767.178,858.611,851.072,0.000,0.000,0
1510777527.941,842.641,769.234,860.188,858.885,0.000,0.000,0
1510777527.943,835.513,768.069,859.160,850.592,0.000,0.000,0
1510777527.945,829.618,770.536,857.583,839.146,0.000,0.000,0
1510777527.947,826.191,774.306,860.530,830.441,0.000,0.000,0
1510777527.949,831.743,773.209,861.627,835.993,0.000,0.000,0
1510777527.951,835.513,773.552,862.929,833.731,0.000,0.000,0
1510777527.953,840.791,774.443,863.615,840.311,0.000,0.000,0
1510777527.955,856.349,775.197,863.820,830.647,0.000,0.000,0
1510777527.957,856.075,776.225,865.739,833.320,0.000,0.000,0
1510777527.959,849.632,775.677,863.546,842.710,0.000,0.000,0
1510777527.961,852.031,773.483,861.147,850.386,0.000,0.000,0
1510777527.963,844.423,774.991,860.736,844.218,0.000,0.000,0
1510777527.965,827.768,773.826,862.929,830.304,0.000,0.000,0
1510777527.967,820.777,773.141,862.107,822.490,0.000,0.000,0
1510777527.969,809.536,767.657,859.639,818.720,0.000,0.000,0
1510777527.971,815.499,767.383,853.950,804.875,0.000,0.000,0
1510777527.973,824.067,768.549,846.891,818.720,0.000,0.000,0
1510777527.975,827.562,770.399,843.052,830.441,0.000,0.000,0
1510777527.977,830.647,770.399,844.629,834.690,0.000,0.000,0
1510777527.979,844.355,763.271,844.218,842.778,0.000,0.000,0
1510777527.981,856.761,768.686,843.738,862.998,0.000,0.000,0
1510777527.983,849.495,774.923,844.423,856.555,0.000,0.000,0
1510777527.985,852.100,776.088,845.109,835.444,0.000,0.000,0
1510777527.987,819.063,773.826,844.286,817.281,0.000,0.000,0
1510777527.989,811.112,774.786,841.407,809.536,0.000,0.000,0
1510777527.991,822.559,777.116,841.339,807.548,0.000,0.000,0
1510777527.993,824.409,778.076,843.806,821.668,0.000,0.000,0
1510777527.995,835.650,777.253,844.834,833.320,0.000,0.000,0
1510777527.997,847.645,778.693,844.149,832.497,0.000,0.000,0
1510777527.999,851.894,781.297,843.943,846.411,0.000,0.000,0
1510777528.001,851.689,780.200,843.121,853.196,0.000,0.000,0
1510777528.003,857.035,778.693,845.520,862.792,0.000,0.000,0
1510777528.005,852.100,779.926,848.399,872.319,0.000,0.000,0
1510777528.007,846.205,780.132,845.109,859.639,0.000,0.000,0
1510777528.009,859.365,781.229,842.230,843.738,0.000,0.000,0
1510777528.011,847.576,783.216,843.943,819.337,0.000,0.000,0
1510777528.013,819.337,785.889,844.081,788.288,0.000,0.000,0
1510777528.015,820.571,786.164,844.903,813.854,0.000,0.000,0
1510777528.017,826.466,789.248,843.738,820.571,0.000,0.000,0
1510777528.019,833.183,789.591,844.218,820.228,0.000,0.000,0
1510777528.021,844.972,789.522,847.919,830.852,0.000,0.000,0
1510777528.023,846.754,787.946,848.399,837.569,0.000,0.000,0
1510777528.025,851.277,786.095,847.987,836.198,0.000,0.000,0
1510777528.027,841.887,778.761,848.673,837.364,0.000,0.000,0
1510777528.029,841.065,780.543,854.430,823.176,0.000,0.000,0
1510777528.031,842.298,784.450,852.031,822.696,0.000,0.000,0
1510777528.033,821.462,790.413,851.552,821.942,0.000,0.000,0
1510777528.035,837.980,792.332,850.181,826.740,0.000,0.000,0
1510777528.037,849.084,792.881,851.140,844.629,0.000,0.000,0
1510777528.039,850.044,793.018,850.592,827.425,0.000,0.000,0
1510777528.041,842.230,791.784,852.511,820.228,0.000,0.000,0
1510777528.043,840.311,791.098,852.991,828.864,0.000,0.000,0
1510777528.045,841.613,788.151,851.757,822.216,0.000,0.000,0
1510777528.047,838.460,788.905,851.483,805.972,0.000,0.000,0
1510777528.049,847.096,787.946,850.660,803.916,0.000,0.000,0
1510777528.051,845.383,786.712,850.455,800.283,0.000,0.000,0
1510777528.053,838.529,788.905,850.455,799.186,0.000,0.000,0
1510777528.055,846.411,791.304,852.785,815.156,0.000,0.000,0
1510777528.057,831.949,791.304,853.950,825.849,0.000,0.000,0
1510777528.059,832.017,786.712,853.471,832.771,0.000,0.000,0
1510777528.061,840.379,781.640,852.785,843.327,0.000,0.000,0
1510777528.063,862.312,778.144,851.003,869.029,0.000,0.000,0
1510777528.065,846.479,774.991,848.262,854.088,0.000,0.000,0
1510777528.067,834.348,771.496,850.866,836.815,0.000,0.000,0
1510777528.069,823.930,773.346,850.729,809.742,0.000,0.000,0
1510777528.071,821.736,775.266,853.950,805.972,0.000,0.000,0
1510777528.073,825.026,777.664,854.979,817.418,0.000,0.000,0
1510777528.075,844.423,780.543,855.321,823.998,0.000,0.000,0
1510777528.077,839.968,782.874,855.938,827.219,0.000,0.000,0
1510777528.079,832.771,781.503,858.885,830.784,0.000,0.000,0
1510777528.081,840.174,779.721,860.119,826.603,0.000,0.000,0
1510777528.083,841.065,781.640,862.655,817.281,0.000,0.000,0
1510777528.085,833.045,784.587,862.861,808.508,0.000,0.000,0
1510777528.087,825.917,780.954,862.518,809.604,0.000,0.000,0
1510777528.089,831.538,779.858,867.933,817.829,0.000,0.000,0
1510777528.091,845.863,781.366,872.799,814.951,0.000,0.000,0
1510777528.093,855.184,781.914,876.912,835.033,0.000,0.000,0
1510777528.095,852.305,781.640,879.379,837.158,0.000,0.000,0
1510777528.097,836.061,783.285,882.121,836.130,0.000,0.000,0
1510777528.099,832.771,783.765,884.040,843.395,0.000,0.000,0
1510777528.101,843.806,784.724,886.096,843.943,0.000,0.000,0
1510777528.103,856.966,783.696,885.137,844.903,0.000,0.000,0
1510777528.105,851.894,784.039,885.548,851.003,0.000,0.000,0
1510777528.107,834.142,784.656,882.189,824.615,0.000,0.000,0
1510777528.109,835.719,784.381,881.641,803.710,0.000,0.000,0
1510777528.111,836.267,782.599,881.778,805.424,0.000,0.000,0
1510777528.113,834.965,780.749,884.245,823.518,0.000,0.000,0
1510777528.115,839.900,779.447,884.931,830.098,0.000,0.000,0
1510777528.117,851.552,779.172,883.560,836.061,0.000,0.000,0
1510777528.119,850.112,777.459,882.738,852.100,0.000,0.000,0
1510777528.121,848.604,777.596,881.093,860.805,0.000,0.000,0
1510777528.123,849.769,777.322,881.024,863.135,0.000,0.000,0
1510777528.125,834.690,776.431,880.887,849.838,0.000,0.000,0
1510777528.127,841.407,778.007,880.750,820.571,0.000,0.000,0
1510777528.129,831.400,778.144,882.669,821.256,0.000,0.000,0
1510777528.131,840.654,782.668,884.862,823.244,0.000,0.000,0
1510777528.133,841.682,784.107,883.766,811.044,0.000,0.000,0
1510777528.135,839.488,782.599,881.230,815.156,0.000,0.000,0
1510777528.137,847.576,779.241,880.133,831.743,0.000,0.000,0
1510777528.139,855.595,778.761,884.794,831.606,0.000,0.000,0
1510777528.141,846.959,779.995,885.342,830.784,0.000,0.000,0
1510777528.143,842.367,776.499,884.451,828.111,0.000,0.000,0
1510777528.145,829.276,768.549,882.806,828.933,0.000,0.000,0
1510777528.147,813.648,766.904,881.778,814.265,0.000,0.000,0
1510777528.149,814.814,771.496,881.435,798.706,0.000,0.000,0
1510777528.151,825.026,779.584,883.149,798.912,0.000,0.000,0
1510777528.153,831.949,780.612,883.423,818.720,0.000,0.000,0
1510777528.155,841.133,779.584,881.847,841.545,0.000,0.000,0
1510777528.157,856.624,777.116,883.766,860.119,0.000,0.000,0
1510777528.159,855.253,775.540,886.302,864.711,0.000,0.000,0
1510777528.161,856.007,781.571,885.479,850.112,0.000,0.000,0
1510777528.163,860.119,787.466,887.398,862.381,0.000,0.000,0
1510777528.165,847.096,790.207,884.999,832.908,0.000,0.000,0
1510777528.167,841.202,793.634,880.887,810.564,0.000,0.000,0
1510777528.169,835.650,794.800,881.641,818.995,0.000,0.000,0
1510777528.171,847.302,797.267,884.588,824.341,0.000,0.000,0
1510777528.173,849.016,796.993,883.766,825.026,0.000,0.000,0
1510777528.175,845.314,793.086,884.314,833.936,0.000,0.000,3
1510777528.177,838.186,787.946,880.476,835.376,0.000,0.000,0
1510777528.179,835.719,785.684,876.775,857.652,0.000,0.000,0
1510777528.181,823.998,784.107,875.883,874.992,0.000,0.000,0
1510777528.183,819.337,787.260,876.295,888.495,0.000,0.000,0
1510777528.185,839.283,795.005,877.734,884.999,0.000,0.000,0
1510777528.187,848.947,795.417,876.500,847.028,0.000,0.000,0
1510777528.189,829.961,794.251,875.335,840.242,0.000,0.000,0
1510777528.191,844.423,796.582,876.637,849.632,0.000,0.000,0
1510777528.193,859.022,798.295,879.105,817.281,0.000,0.000,0
1510777528.195,838.392,799.186,879.105,789.933,0.000,0.000,0
1510777528.197,834.553,800.283,879.790,801.448,0.000,0.000,0
1510777528.199,845.177,803.573,878.419,822.422,0.000,0.000,0
1510777528.201,841.682,804.875,877.323,841.750,0.000,0.000,0
1510777528.203,851.483,806.109,876.637,835.650,0.000,0.000,0
1510777528.205,840.654,805.903,874.787,816.527,0.000,0.000,0
1510777528.207,838.186,803.779,874.033,812.209,0.000,0.000,0
1510777528.209,838.460,803.984,876.775,814.745,0.000,0.000,0
1510777528.211,863.135,802.956,878.351,817.761,0.000,0.000,0
1510777528.213,862.655,801.037,879.311,840.516,0.000,0.000,0
1510777528.215,846.068,804.464,878.077,830.098,0.000,0.000,0
1510777528.217,851.620,805.835,878.968,837.569,0.000,0.000,0
1510777528.219,871.291,804.532,877.871,846.959,0.000,0.000,0
1510777528.221,848.741,803.847,876.295,840.996,0.000,0.000,0
1510777528.223,840.654,800.557,875.061,823.587,0.000,0.000,0
1510777528.225,847.233,800.009,876.089,829.618,0.000,0.000,0
1510777528.227,846.000,796.650,877.460,846.617,0.000,0.000,0
1510777528.229,844.560,797.336,877.117,853.059,0.000,0.000,0
1510777528.231,858.680,804.875,874.924,842.436,0.000,0.000,0
1510777528.233,855.458,810.633,874.924,828.385,0.000,0.000,0
1510777528.235,862.655,815.088,873.759,829.002,0.000,0.000,0
1510777528.237,860.462,812.072,875.678,848.056,0.000,0.000,0
1510777528.239,847.987,811.318,876.158,854.156,0.000,0.000,0
1510777528.241,860.051,818.720,874.101,867.247,0.000,0.000,0
1510777528.243,862.244,822.559,871.428,855.732,0.000,0.000,0
1510777528.245,864.643,821.599,869.783,860.051,0.000,0.000,0
1510777528.247,862.655,823.313,869.852,848.056,0.000,0.000,0
1510777528.249,861.490,823.518,865.739,822.490,0.000,0.000,0
1510777528.251,851.346,824.821,863.752,817.418,0.000,0.000,0
1510777528.253,860.119,825.917,863.615,836.130,0.000,0.000,0
1510777528.255,867.933,829.618,861.558,848.262,0.000,0.000,0
1510777528.257,886.576,831.880,860.873,860.805,0.000,0.000,0
1510777528.259,898.776,834.074,861.490,888.358,0.000,0.000,0
1510777528.261,903.437,834.279,863.615,893.019,0.000,0.000,0
1510777528.263,908.852,834.690,865.602,879.790,0.000,0.000,0
1510777528.265,891.511,836.952,868.070,872.251,0.000,0.000,0
1510777528.267,892.813,837.980,869.578,856.692,0.000,0.000,0
1510777528.269,891.854,838.871,867.864,848.741,0.000,0.000,0
1510777528.271,899.462,838.734,869.029,870.400,0.000,0.000,0
1510777528.273,907.481,838.803,872.045,892.950,0.000,0.000,0
1510777528.275,904.054,840.311,871.428,897.885,0.000,0.000,0
1510777528.277,910.154,845.657,867.247,895.555,0.000,0.000,0
1510777528.279,905.425,845.451,867.316,891.922,0.000,0.000,0
1510777528.281,904.808,849.564,864.232,904.671,0.000,0.000,0
1510777528.283,910.702,848.947,862.998,901.792,0.000,0.000,0
1510777528.285,901.929,848.124,863.203,876.912,0.000,0.000,0
1510777528.287,877.391,846.205,861.901,854.841,0.000,0.000,0
1510777528.289,872.799,846.068,863.683,851.894,0.000,0.000,0
1510777528.291,882.258,849.975,863.272,859.708,0.000,0.000,0
1510777528.293,900.627,853.471,862.998,863.546,0.000,0.000,0
1510777528.295,906.384,856.418,864.300,865.397,0.000,0.000,0
1510777528.297,910.291,856.829,865.534,876.775,0.000,0.000,0
1510777528.299,911.388,858.337,862.998,894.321,0.000,0.000,0
1510777528.301,915.432,862.655,860.462,904.602,0.000,0.000,0
1510777528.303,910.291,866.768,861.079,899.119,0.000,0.000,0
1510777528.305,923.108,867.864,861.284,896.720,0.000,0.000,0
1510777528.307,919.475,868.138,860.530,884.040,0.000,0.000,0
1510777528.309,898.228,866.493,859.708,874.376,0.000,0.000,0
1510777528.311,882.943,865.191,859.297,870.674,0.000,0.000,0
1510777528.313,876.706,870.263,857.789,872.731,0.000,0.000,0
1510777528.315,877.597,873.416,855.321,869.304,0.000,0.000,0
1510777528.317,882.669,873.073,855.732,884.314,0.000,0.000,0
1510777528.319,908.646,873.690,858.885,902.752,0.000,0.000,0
1510777528.321,900.147,873.896,860.736,909.537,0.000,0.000,0
1510777528.323,888.975,872.799,859.571,893.636,0.000,0.000,0
1510777528.325,893.156,872.525,856.555,885.548,0.000,0.000,0
1510777528.327,872.936,874.307,854.019,861.558,0.000,0.000,0
1510777528.329,873.005,876.500,853.402,844.560,0.000,0.000,0
1510777528.331,872.388,878.351,854.225,848.467,0.000,0.000,0
1510777528.333,883.492,879.653,854.841,865.260,0.000,0.000,0
1510777528.335,881.847,877.460,852.785,873.690,0.000,0.000,0
1510777528.337,886.028,876.843,849.975,886.028,0.000,0.000,0
1510777528.339,906.932,880.133,849.358,895.486,0.000,0.000,0
1510777528.341,918.584,882.395,847.850,911.799,0.000,0.000,0
1510777528.343,913.307,883.834,848.193,904.876,0.000,0.000,0
1510777528.345,884.794,883.560,849.016,881.161,0.000,0.000,0
1510777528.347,892.607,884.451,850.866,866.905,0.000,0.000,0
1510777528.349,894.184,886.987,849.701,853.059,0.000,0.000,0
1510777528.351,880.956,890.894,849.016,861.833,0.000,0.000,0
1510777528.353,879.516,893.224,851.346,885.479,0.000,0.000,0
1510777528.355,893.841,894.732,853.334,891.991,0.000,0.000,0
1510777528.357,890.962,893.293,850.935,893.361,0.000,0.000,0
1510777528.359,891.511,887.535,849.838,868.207,0.000,0.000,0
1510777528.361,893.910,884.999,850.592,872.388,0.000,0.000,0
1510777528.363,879.585,886.165,850.249,869.304,0.000,0.000,0
1510777528.365,877.460,891.716,848.536,850.660,0.000,0.000,0
1510777528.367,875.198,893.910,847.233,848.741,0.000,0.000,0
1510777528.369,904.534,891.511,848.193,871.154,0.000,0.000,0
1510777528.371,896.720,891.854,849.838,885.411,0.000,0.000,0
1510777528.373,865.808,893.567,849.838,874.855,0.000,0.000,0
1510777528.375,879.448,895.692,851.620,867.933,0.000,0.000,0
1510777528.377,870.949,897.885,851.757,865.945,0.000,0.000,0
1510777528.379,863.409,894.527,854.088,887.261,0.000,0.000,0
1510777528.381,868.618,897.131,855.116,880.956,0.000,0.000,0
1510777528.383,876.706,902.477,857.857,876.569,0.000,0.000,0
1510777528.385,881.778,905.562,859.982,882.395,0.000,0.000,0
1510777528.387,882.326,903.985,856.898,889.249,0.000,0.000,0
1510777528.389,872.114,901.792,854.156,875.883,0.000,0.000,0
1510777528.391,871.086,901.312,854.019,854.499,0.000,0.000,0
1510777528.393,885.959,906.041,857.652,867.659,0.000,0.000,0
1510777528.395,892.265,913.512,860.051,886.987,0.000,0.000,0
1510777528.397,886.233,915.363,860.188,878.557,0.000,0.000,0
1510777528.399,886.644,916.391,859.228,876.775,0.000,0.000,0
1510777528.401,897.954,911.867,862.038,892.607,0.000,0.000,0
1510777528.403,895.623,910.085,868.618,893.224,0.000,0.000,0
1510777528.405,890.825,911.662,871.291,877.666,0.000,0.000,0
1510777528.407,877.528,914.541,870.195,857.652,0.000,0.000,0
1510777528.409,886.233,916.665,871.703,853.676,0.000,0.000,0
1510777528.411,878.077,919.270,872.731,872.319,0.000,0.000,0
1510777528.413,878.077,922.697,872.525,883.903,0.000,0.000,0
1510777528.415,891.511,924.822,870.606,878.968,0.000,0.000,0
1510777528.417,888.084,926.467,869.372,876.706,0.000,0.000,0
1510777528.419,893.704,927.769,867.864,908.098,0.000,0.000,0
1510777528.421,886.233,929.482,862.724,895.006,0.000,0.000,0
1510777528.423,877.049,930.099,862.381,876.500,0.000,0.000,0
1510777528.425,882.532,929.482,864.437,885.548,0.000,0.000,0
1510777528.427,879.379,930.648,864.848,871.840,0.000,0.000,0
1510777528.429,879.242,930.785,866.768,871.908,0.000,0.000,0
1510777528.431,877.049,930.648,868.138,875.883,0.000,0.000,0
1510777528.433,874.787,932.087,868.344,868.207,0.000,0.000,0
1510777528.435,872.388,931.607,866.356,855.184,0.000,0.000,0
1510777528.437,880.270,931.950,864.985,861.147,0.000,0.000,0
1510777528.439,879.311,936.679,863.341,889.180,0.000,0.000,0
1510777528.441,880.818,938.461,862.655,892.128,0.000,0.000,0
1510777528.443,873.485,937.022,864.300,882.532,0.000,0.000,0
1510777528.445,880.133,938.598,866.836,883.217,0.000,0.000,0
1510777528.447,890.209,942.711,865.945,879.173,0.000,0.000,0
1510777528.449,869.235,941.271,866.356,862.244,0.000,0.000,0
1510777528.451,873.759,937.982,867.659,857.172,0.000,0.000,0
1510777528.453,875.198,939.215,867.796,879.105,0.000,0.000,0
1510777528.455,882.669,939.352,867.110,891.511,0.000,0.000,0
1510777528.457,903.848,942.711,868.413,893.156,0.000,0.000,0
1510777528.459,904.534,947.783,869.029,895.075,0.000,0.000,0
1510777528.461,908.783,953.266,867.247,902.683,0.000,0.000,0
1510777528.463,899.873,955.048,864.643,884.177,0.000,0.000,0
1510777528.465,905.425,956.899,865.808,913.444,0.000,0.000,0
1510777528.467,901.929,958.133,864.163,912.553,0.000,0.000,0
1510777528.469,896.857,957.447,864.574,854.773,0.000,0.000,0
1510777528.471,887.193,956.625,866.493,848.536,0.000,0.000,0
1510777528.473,891.854,956.556,867.042,863.615,0.000,0.000,0
1510777528.475,889.934,958.475,868.070,890.209,0.000,0.000,0
1510777528.477,892.950,959.777,869.578,902.683,0.000,0.000,0
1510777528.479,910.154,959.298,873.073,907.481,0.000,0.000,0
1510777528.481,898.159,960.120,873.073,908.646,0.000,0.000,0
1510777528.483,898.708,965.809,873.279,905.562,0.000,0.000,0
1510777528.485,898.433,969.305,872.731,890.414,0.000,0.000,0
1510777528.487,891.511,965.398,872.319,879.379,0.000,0.000,0
1510777528.489,894.184,961.697,874.581,883.560,0.000,0.000,0
1510777528.491,890.071,962.382,876.980,890.962,0.000,0.000,0
1510777528.493,899.324,967.385,879.379,878.831,0.000,0.000,0
1510777528.495,897.200,974.514,877.940,887.124,0.000,0.000,0
1510777528.497,902.272,982.327,881.778,906.179,0.000,0.000,0
1510777528.499,910.565,985.686,885.411,904.945,0.000,0.000,0
1510777528.501,916.185,985.960,886.370,908.166,0.000,0.000,0
1510777528.503,912.142,983.081,892.128,909.263,0.000,0.000,0
1510777528.505,902.409,978.695,898.433,898.708,0.000,0.000,0
1510777528.507,900.901,977.393,901.175,899.941,0.000,0.000,0
1510777528.509,880.750,977.324,895.418,868.892,0.000,0.000,0
1510777528.511,864.917,976.296,889.455,860.805,0.000,0.000,0
1510777528.513,868.275,978.626,889.797,860.530,0.000,0.000,0
1510777528.515,869.989,979.037,887.810,851.894,0.000,0.000,0
1510777528.517,871.977,980.408,887.535,861.216,0.000,0.000,0
1510777528.518,874.307,978.215,887.741,875.198,0.000,0.000,0
1510777528.520,880.064,977.393,887.604,890.277,0.000,0.000,0
1510777528.522,866.493,973.554,889.043,901.792,0.000,0.000,0
1510777528.524,850.660,971.361,887.124,884.999,0.000,0.000,0
1510777528.526,846.617,970.196,885.959,860.119,0.000,0.000,0
1510777528.528,843.327,965.261,882.395,841.887,0.000,0.000,0
1510777528.530,843.532,969.647,879.379,829.687,0.000,0.000,0
1510777528.532,841.545,974.856,878.899,833.936,0.000,0.000,0
1510777528.534,839.077,977.530,880.956,838.186,0.000,0.000,0
1510777528.536,844.903,978.421,880.681,826.671,0.000,0.000,0
1510777528.538,855.732,981.436,881.572,827.151,0.000,0.000,0
1510777528.540,843.601,983.630,882.738,844.560,0.000,0.000,0
1510777528.542,837.501,983.424,880.613,837.158,0.000,0.000,0
1510777528.544,831.743,981.573,881.024,847.576,0.000,0.000,0
1510777528.546,821.393,980.477,880.202,836.610,0.000,0.000,0
1510777528.548,824.409,982.053,880.476,832.017,0.000,0.000,0
1510777528.550,838.734,983.835,881.161,839.762,0.000,0.000,0
1510777528.552,860.805,984.589,883.766,858.131,0.000,0.000,0
1510777528.554,878.351,988.976,884.931,874.513,0.000,0.000,0
1510777528.556,887.193,994.802,885.411,866.836,0.000,0.000,0
1510777528.558,860.599,995.556,886.781,858.885,0.000,0.000,0
1510777528.560,865.465,997.955,886.919,868.755,0.000,0.000,0
1510777528.562,867.864,999.805,887.535,878.899,0.000,0.000,0
1510777528.564,866.630,1000.148,886.439,869.372,0.000,0.000,0
1510777528.566,867.042,1000.422,888.358,858.406,0.000,0.000,0
1510777528.568,857.789,1002.821,889.112,849.564,0.000,0.000,0
1510777528.570,866.836,1004.877,889.660,850.660,0.000,0.000,0
1510777528.572,888.701,1006.865,889.249,863.683,0.000,0.000,0
1510777528.574,885.616,1008.373,889.523,870.880,0.000,0.000,0
1510777528.576,884.588,1007.482,889.386,885.479,0.000,0.000,0
1510777528.578,906.247,1007.825,891.511,922.149,0.000,0.000,0
1510777528.580,899.119,1008.030,893.430,923.931,0.000,0.000,0
1510777528.582,881.161,1009.881,890.414,901.723,0.000,0.000,0
1510777528.584,874.170,1009.744,884.451,874.376,0.000,0.000,0
1510777528.586,859.160,1006.385,881.915,846.000,0.000,0.000,0
1510777528.588,847.302,1003.301,880.613,835.787,0.000,0.000,0
1510777528.590,873.553,1007.756,882.875,851.963,0.000,0.000,0
1510777528.592,895.692,1014.473,886.028,881.847,0.000,0.000,0
1510777528.594,893.156,1017.009,884.657,895.555,0.000,0.000,0
1510777528.596,891.785,1014.953,879.996,888.152,0.000,0.000,0
1510777528.598,896.994,1013.582,882.189,893.636,0.000,0.000,0
1510777528.600,905.288,1015.501,883.492,909.057,0.000,0.000,0
1510777528.602,891.716,1015.981,882.189,912.758,0.000,0.000,0
1510777528.604,881.641,1016.049,879.653,881.641,0.000,0.000,0
1510777528.606,886.919,1014.884,877.323,871.565,0.000,0.000,0
1510777528.608,880.407,1014.062,876.021,884.245,0.000,0.000,0
1510777528.610,886.233,1012.554,874.992,887.810,0.000,0.000,0
1510777528.612,887.535,1013.171,876.980,880.887,0.000,0.000,0
1510777528.614,886.713,1013.034,877.528,871.565,0.000,0.000,0
1510777528.616,884.314,1013.171,877.323,871.840,0.000,0.000,0
1510777528.618,891.854,1014.130,876.432,886.644,0.000,0.000,0
1510777528.620,901.175,1016.392,872.731,896.172,0.000,0.000,0
1510777528.622,898.365,1016.392,873.964,900.421,0.000,0.000,0
1510777528.624,893.636,1015.433,874.307,900.764,0.000,0.000,0
1510777528.626,893.156,1012.691,871.360,889.729,0.000,0.000,0
1510777528.628,898.776,1016.118,869.852,889.386,0.000,0.000,0
1510777528.630,892.607,1016.461,868.481,882.601,0.000,0.000,0
1510777528.632,885.616,1014.884,868.755,874.101,0.000,0.000,0
1510777528.634,885.479,1016.941,871.291,886.713,0.000,0.000,0
1510777528.636,890.620,1016.941,869.920,895.897,0.000,0.000,0
1510777528.638,902.272,1017.969,868.755,907.824,0.000,0.000,0
1510777528.640,918.859,1019.888,869.509,929.414,0.000,0.000,0
1510777528.642,909.606,1019.751,869.646,929.688,0.000,0.000,0
1510777528.644,916.871,1024.411,869.098,927.083,0.000,0.000,0
1510777528.646,912.142,1025.782,870.057,888.632,0.000,0.000,0
1510777528.648,897.680,1025.028,871.223,869.372,0.000,0.000,0
1510777528.650,899.530,1025.440,871.497,874.581,0.000,0.000,0
1510777528.652,895.555,1026.536,868.755,887.810,0.000,0.000,0
1510777528.654,907.481,1027.839,865.465,893.430,0.000,0.000,0
1510777528.656,898.913,1024.754,863.820,893.156,0.000,0.000,0
1510777528.658,891.374,1021.670,864.369,914.609,0.000,0.000,0
1510777528.660,919.818,1020.368,863.683,955.528,0.000,0.000,0
1510777528.662,931.539,1022.698,860.393,936.337,0.000,0.000,0
1510777528.664,888.221,1020.984,859.228,900.284,0.000,0.000,0
1510777528.666,870.195,1018.037,858.543,871.223,0.000,0.000,0
1510777528.668,873.896,1017.283,857.515,853.676,0.000,0.000,0
1510777528.670,885.822,1015.981,858.680,867.042,0.000,0.000,0
1510777528.672,887.878,1014.473,856.761,881.778,0.000,0.000,0
1510777528.674,906.590,1009.195,852.854,892.128,0.000,0.000,0
1510777528.676,902.203,1005.083,852.168,911.113,0.000,0.000,0
1510777528.678,894.390,1010.498,856.692,916.323,0.000,0.000,0
1510777528.680,906.179,1020.779,858.131,907.070,0.000,0.000,0
1510777528.682,909.674,1026.536,858.748,898.845,0.000,0.000,0
1510777528.684,910.771,1026.262,860.256,900.010,0.000,0.000,0
1510777528.686,902.820,1022.904,856.624,888.975,0.000,0.000,0
1510777528.688,902.546,1021.944,854.979,886.370,0.000,0.000,0
1510777528.690,907.961,1022.218,855.184,894.938,0.000,0.000,0
1510777528.692,895.075,1018.448,851.826,888.289,0.000,0.000,0
1510777528.694,884.451,1017.352,848.878,891.854,0.000,0.000,0
1510777528.696,889.523,1016.735,847.645,907.618,0.000,0.000,0
1510777528.698,893.087,1019.888,847.850,909.948,0.000,0.000,0
1510777528.700,896.309,1020.368,847.919,918.790,0.000,0.000,0
1510777528.702,903.163,1020.231,849.769,918.653,0.000,0.000,0
1510777528.704,906.041,1019.956,849.084,908.852,0.000,0.000,0
1510777528.706,901.929,1019.751,849.495,907.618,0.000,0.000,0
1510777528.708,895.486,1017.763,847.096,900.353,0.000,0.000,0
1510777528.710,900.353,1017.078,845.451,893.087,0.000,0.000,0
1510777528.712,912.758,1018.174,843.532,889.866,0.000,0.000,0
1510777528.714,909.880,1018.174,845.246,889.729,0.000,0.000,0
1510777528.716,906.521,1018.928,844.423,906.795,0.000,0.000,0
1510777528.718,919.133,1017.969,844.149,913.033,0.000,0.000,0
1510777528.720,914.609,1018.174,847.096,926.124,0.000,0.000,0
1510777528.722,912.005,1018.791,845.863,917.693,0.000,0.000,0
1510777528.724,896.651,1018.654,844.012,911.045,0.000,0.000,0
1510777528.726,885.685,1020.093,843.327,907.344,0.000,0.000,0
1510777528.728,897.337,1021.259,842.573,885.274,0.000,0.000,0
1510777528.730,911.251,1019.614,839.900,881.435,0.000,0.000,0
1510777528.732,893.773,1020.231,838.392,875.198,0.000,0.000,0
1510777528.734,881.298,1018.723,838.117,865.054,0.000,0.000,0
1510777528.736,873.553,1015.844,837.364,879.311,0.000,0.000,0
1510777528.738,890.551,1016.118,834.828,902.340,0.000,0.000,0
1510777528.740,898.570,1014.679,829.755,888.084,0.000,0.000,0
1510777528.742,896.514,1015.501,828.659,882.601,0.000,0.000,0
1510777528.744,916.734,1019.339,833.799,903.026,0.000,0.000,0
1510777528.746,923.862,1022.972,838.049,904.328,0.000,0.000,0
1510777528.748,911.593,1020.368,842.710,894.732,0.000,0.000,0
1510777528.750,895.075,1017.215,846.205,890.825,0.000,0.000,0
1510777528.752,894.321,1014.816,845.588,889.112,0.000,0.000,0
1510777528.754,894.390,1013.171,841.887,881.435,0.000,0.000,0
1510777528.756,899.256,1008.030,842.436,892.539,0.000,0.000,0
1510777528.758,892.607,1006.797,845.726,902.409,0.000,0.000,0
1510777528.760,881.984,1006.043,844.903,899.941,0.000,0.000,0
1510777528.762,882.738,1006.659,849.427,909.811,0.000,0.000,0
1510777528.764,883.217,1010.566,849.838,912.964,0.000,0.000,0
1510777528.766,883.012,1012.554,847.028,883.560,0.000,0.000,0
1510777528.768,870.606,1008.716,844.218,863.820,0.000,0.000,0
1510777528.770,866.014,1008.510,843.738,857.240,0.000,0.000,0
1510777528.772,873.347,1011.320,847.919,867.179,0.000,0.000,0
1510777528.774,886.713,1012.143,853.402,884.520,0.000,0.000,0
1510777528.776,901.586,1013.102,855.938,889.043,0.000,0.000,0
1510777528.778,893.910,1014.610,857.309,907.412,0.000,0.000,0
1510777528.780,880.339,1016.049,857.172,906.247,0.000,0.000,0
1510777528.782,871.497,1015.638,857.035,896.583,0.000,0.000,0
1510777528.784,879.379,1017.763,855.458,885.137,0.000,0.000,0
1510777528.786,878.077,1017.763,855.938,870.674,0.000,0.000,0
1510777528.788,878.557,1018.997,857.994,859.434,0.000,0.000,0
1510777528.790,879.996,1020.093,860.942,876.637,0.000,0.000,0
1510777528.792,883.834,1020.299,862.449,896.514,0.000,0.000,0
1510777528.794,885.548,1021.122,865.671,887.056,0.000,0.000,0
1510777528.796,887.535,1020.436,868.275,878.488,0.000,0.000,0
1510777528.798,872.114,1017.969,866.768,883.492,0.000,0.000,0
1510777528.800,877.460,1019.819,864.369,893.430,0.000,0.000,0
1510777528.802,885.685,1022.150,863.752,898.159,0.000,0.000,0
1510777528.804,895.897,1022.629,864.232,897.474,0.000,0.000,0
1510777528.806,890.551,1021.601,865.945,892.128,0.000,0.000,0
1510777528.808,879.173,1021.396,868.001,883.354,0.000,0.000,0
1510777528.810,881.298,1018.654,869.029,866.973,0.000,0.000,0
1510777528.812,899.119,1018.106,870.195,877.323,0.000,0.000,0
1510777528.814,880.818,1019.134,872.594,868.275,0.000,0.000,0
1510777528.816,864.780,1017.009,872.731,871.360,0.000,0.000,0
1510777528.818,885.411,1018.448,873.347,890.483,0.000,0.000,0
1510777528.820,889.180,1018.380,873.005,902.477,0.000,0.000,0
1510777528.822,881.298,1019.545,875.198,902.409,0.000,0.000,0
1510777528.824,885.342,1017.283,874.992,903.026,0.000,0.000,0
1510777528.826,889.797,1016.735,873.622,883.766,0.000,0.000,0
1510777528.828,873.416,1012.691,876.432,871.291,0.000,0.000,0
1510777528.830,862.038,1016.187,878.214,857.309,0.000,0.000,0
1510777528.832,861.147,1020.093,880.064,857.857,0.000,0.000,0
1510777528.834,864.985,1024.274,882.463,862.381,0.000,0.000,0
1510777528.836,868.550,1026.057,883.492,863.272,0.000,0.000,0
1510777528.838,871.223,1026.262,883.492,870.263,0.000,0.000,0
1510777528.840,883.492,1022.972,881.230,884.177,0.000,0.000,0
1510777528.842,891.374,1021.259,878.899,889.043,0.000,0.000,0
1510777528.844,873.347,1021.122,876.226,880.202,0.000,0.000,0
1510777528.846,858.063,1018.860,869.304,862.244,0.000,0.000,0
1510777528.848,862.861,1020.847,867.247,848.604,0.000,0.000,0
1510777528.850,870.537,1024.549,866.562,852.648,0.000,0.000,0
1510777528.852,870.400,1023.452,866.562,866.425,0.000,0.000,0
1510777528.854,881.093,1019.545,868.207,867.864,0.000,0.000,0
1510777528.856,887.947,1021.396,866.356,864.094,0.000,0.000,0
1510777528.858,874.239,1021.944,863.683,870.674,0.000,0.000,0
1510777528.860,883.766,1021.738,861.490,897.885,0.000,0.000,0
1510777528.862,873.690,1020.368,856.761,909.880,0.000,0.000,0
1510777528.864,868.275,1016.803,855.184,884.862,0.000,0.000,0
1510777528.866,860.530,1014.062,855.938,848.124,0.000,0.000,0
1510777528.868,849.495,1012.828,855.595,840.174,0.000,0.000,0
1510777528.870,857.994,1011.457,857.377,850.318,0.000,0.000,0
1510777528.872,871.497,1009.675,860.393,866.219,0.000,0.000,0
1510777528.874,869.783,1008.304,862.861,872.319,0.000,0.000,0
1510777528.876,858.131,1004.260,863.615,881.093,0.000,0.000,0
1510777528.878,854.362,1004.260,863.752,879.311,0.000,0.000,0
1510777528.880,866.973,1006.248,863.066,876.295,0.000,0.000,0
1510777528.882,873.347,1006.728,860.736,856.007,0.000,0.000,0
1510777528.884,875.678,1004.192,862.724,849.769,0.000,0.000,0
1510777528.886,878.214,1007.002,864.437,851.689,0.000,0.000,0
1510777528.888,883.560,1010.429,862.861,853.950,0.000,0.000,0
1510777528.890,882.875,1012.828,859.845,856.898,0.000,0.000,0
1510777528.892,863.546,1012.691,857.172,845.314,0.000,0.000,0
1510777528.894,866.493,1011.320,856.349,832.360,0.000,0.000,0
1510777528.896,857.446,1006.865,856.829,847.165,0.000,0.000,0
1510777528.898,858.611,1006.797,858.680,854.499,0.000,0.000,0
1510777528.900,871.086,1004.740,859.022,859.434,0.000,0.000,0
1510777528.902,859.160,1001.656,860.051,862.381,0.000,0.000,0
1510777528.904,856.829,995.898,859.434,864.163,0.000,0.000,0
1510777528.906,851.689,989.798,859.297,862.312,0.000,0.000,0
1510777528.908,849.975,986.988,858.543,850.112,0.000,0.000,0
1510777528.910,848.947,990.689,859.845,826.671,0.000,0.000,0
1510777528.912,846.548,987.674,861.901,822.147,0.000,0.000,0
1510777528.914,848.741,990.073,861.558,832.634,0.000,0.000,0
1510777528.916,852.168,989.867,857.583,850.729,0.000,0.000,0
1510777528.918,853.265,986.714,853.813,862.244,0.000,0.000,0
1510777528.920,855.253,982.670,853.950,866.973,0.000,0.000,0
1510777528.922,854.567,985.549,858.200,866.630,0.000,0.000,0
1510777528.924,855.801,983.698,860.667,857.377,0.000,0.000,0
1510777528.926,850.592,979.860,859.022,842.504,0.000,0.000,0
1510777528.928,849.427,976.296,855.458,827.357,0.000,0.000,0
1510777528.930,862.587,975.405,856.212,834.005,0.000,0.000,0
1510777528.932,839.557,979.997,858.268,821.531,0.000,0.000,0
1510777528.934,830.098,982.876,856.624,823.381,0.000,0.000,0
1510777528.936,836.061,979.312,858.817,829.207,0.000,0.000,0
1510777528.938,844.218,974.925,861.901,834.759,0.000,0.000,0
1510777528.940,855.458,975.405,862.038,850.935,0.000,0.000,0
1510777528.942,847.165,975.268,862.244,852.237,0.000,0.000,0
1510777528.944,835.444,971.772,859.502,836.678,0.000,0.000,0
1510777528.946,829.550,970.538,857.789,823.930,0.000,0.000,0
1510777528.948,831.812,968.825,859.502,822.901,0.000,0.000,0
1510777528.950,835.170,969.442,859.571,825.026,0.000,0.000,0
1510777528.952,830.372,967.180,861.147,832.017,0.000,0.000,0
1510777528.954,828.727,965.878,862.312,846.274,0.000,0.000,0
1510777528.956,840.379,965.261,863.341,860.119,0.000,0.000,0
1510777528.958,851.894,965.535,862.724,856.212,0.000,0.000,0
1510777528.960,859.982,966.015,862.381,859.022,0.000,0.000,0
1510777528.962,857.172,964.507,860.873,867.247,0.000,0.000,0
1510777528.964,843.738,965.261,857.309,851.003,0.000,0.000,0
1510777528.966,822.901,966.632,855.390,822.216,0.000,0.000,0
1510777528.968,806.863,967.385,858.817,795.965,0.000,0.000,0
1510777528.970,806.040,967.385,862.792,796.719,0.000,0.000,0
1510777528.972,816.116,970.127,862.587,804.327,0.000,0.000,0
1510777528.974,827.014,968.756,864.437,812.003,0.000,0.000,0
1510777528.976,824.341,965.672,867.933,818.172,0.000,0.000,0
1510777528.978,826.671,965.329,871.360,833.457,0.000,0.000,0
1510777528.980,819.886,964.849,873.964,829.413,0.000,0.000,0
1510777528.982,817.075,962.245,874.650,828.316,0.000,0.000,0
1510777528.984,832.223,965.603,873.347,825.163,0.000,0.000,0
1510777528.986,839.214,966.426,874.787,818.309,0.000,0.000,0
1510777528.988,820.845,960.600,873.210,816.938,0.000,0.000,0
1510777528.990,820.982,957.379,870.949,820.297,0.000,0.000,0
1510777528.992,813.923,953.814,870.606,798.706,0.000,0.000,0
1510777528.994,807.960,944.424,872.868,795.485,0.000,0.000,0
1510777528.996,818.995,942.368,877.186,813.785,0.000,0.000,0
1510777528.998,830.921,946.686,881.572,834.828,0.000,0.000,0
1510777529.000,836.404,953.129,886.096,846.342,0.000,0.000,0
1510777529.002,844.012,956.762,889.660,842.161,0.000,0.000,0
1510777529.004,843.601,957.310,891.305,830.167,0.000,0.000,0
1510777529.006,829.070,956.830,891.305,834.005,0.000,0.000,0
1510777529.008,823.244,954.089,889.318,830.989,0.000,0.000,0
1510777529.010,817.144,949.154,884.451,812.141,0.000,0.000,0
1510777529.012,824.272,940.175,881.915,804.053,0.000,0.000,0
1510777529.014,820.160,937.228,877.391,819.611,0.000,0.000,0
1510777529.016,823.039,934.417,875.404,826.466,0.000,0.000,0
1510777529.018,814.539,934.212,875.746,822.764,0.000,0.000,0
1510777529.020,816.733,931.950,879.722,827.151,0.000,0.000,0
1510777529.022,820.091,926.946,886.096,841.476,0.000,0.000,0
1510777529.024,824.958,925.164,879.173,825.437,0.000,0.000,0
1510777529.026,826.945,927.015,869.646,806.794,0.000,0.000,0
1510777529.028,822.079,923.519,874.718,811.866,0.000,0.000,0
1510777529.030,814.060,918.310,878.488,800.763,0.000,0.000,0
1510777529.032,813.648,918.379,882.875,794.251,0.000,0.000,0
1510777529.034,813.032,921.463,886.302,789.385,0.000,0.000,0
1510777529.036,803.230,922.423,887.604,802.476,0.000,0.000,0
1510777529.038,816.870,917.968,888.769,818.652,0.000,0.000,0
1510777529.040,831.058,913.033,891.168,830.304,0.000,0.000,0
1510777529.042,826.328,904.602,893.978,822.696,0.000,0.000,0
1510777529.044,812.689,900.147,893.293,811.249,0.000,0.000,0
1510777529.046,798.021,899.119,893.361,802.271,0.000,0.000,0
1510777529.048,790.070,891.716,894.527,791.784,0.000,0.000,0
1510777529.050,778.076,879.516,894.801,782.257,0.000,0.000,0
1510777529.052,781.023,876.226,892.950,784.724,0.000,0.000,0
1510777529.054,779.447,877.391,890.209,785.204,0.000,0.000,0
1510777529.056,794.937,878.557,888.495,811.387,0.000,0.000,0
1510777529.058,819.406,877.940,891.100,830.235,0.000,0.000,0
1510777529.060,814.608,874.307,894.321,814.951,0.000,0.000,0
1510777529.062,788.220,867.042,896.309,769.919,0.000,0.000,0
1510777529.064,779.721,859.913,896.994,767.932,0.000,0.000,0
1510777529.066,768.137,857.583,897.611,765.121,0.000,0.000,0
1510777529.068,775.334,857.652,900.832,756.485,0.000,0.000,0
1510777529.070,773.415,858.268,904.465,752.647,0.000,0.000,0
1510777529.072,764.916,858.337,909.743,766.013,0.000,0.000,0
1510777529.074,775.334,857.583,914.678,785.684,0.000,0.000,0
1510777529.076,782.257,856.075,916.323,780.817,0.000,0.000,0
1510777529.078,787.329,855.321,916.665,773.278,0.000,0.000,0
1510777529.080,784.930,854.156,919.613,780.612,0.000,0.000,0
1510777529.082,780.475,852.511,924.616,791.647,0.000,0.000,0
1510777529.084,778.967,851.483,931.196,792.332,0.000,0.000,0
1510777529.086,772.181,852.854,932.567,778.967,0.000,0.000,0
1510777529.088,774.991,851.894,933.321,776.773,0.000,0.000,0
1510777529.090,768.617,850.798,933.321,760.735,0.000,0.000,0
1510777529.092,769.371,849.975,935.720,754.498,0.000,0.000,0
1510777529.094,772.044,850.866,934.966,752.647,0.000,0.000,0
1510777529.096,779.926,847.919,936.268,775.471,0.000,0.000,0
1510777529.098,784.450,844.903,939.215,786.917,0.000,0.000,0
1510777529.100,788.151,845.451,939.901,784.656,0.000,0.000,0
1510777529.102,790.893,849.769,943.259,789.522,0.000,0.000,0
1510777529.104,785.684,852.922,946.618,795.896,0.000,0.000,0
1510777529.106,780.269,851.894,945.521,779.858,0.000,0.000,0
1510777529.108,779.378,848.947,943.533,763.819,0.000,0.000,0
1510777529.110,780.817,850.592,942.642,762.723,0.000,0.000,0
1510777529.112,772.592,851.689,940.860,767.315,0.000,0.000,0
1510777529.114,780.954,852.237,936.062,776.362,0.000,0.000,0
1510777529.116,788.288,852.511,930.853,782.257,0.000,0.000,0
1510777529.118,792.195,852.854,929.551,783.559,0.000,0.000,0
1510777529.120,795.074,850.729,933.252,793.840,0.000,0.000,0
1510777529.122,799.803,848.673,936.816,805.835,0.000,0.000,0
1510777529.124,802.545,846.754,938.256,807.411,0.000,0.000,0
1510777529.126,790.824,847.302,939.558,783.696,0.000,0.000,0
1510777529.128,779.035,848.536,938.735,772.867,0.000,0.000,0
1510777529.130,772.181,850.455,937.365,775.882,0.000,0.000,0
1510777529.132,773.209,852.374,937.570,776.431,0.000,0.000,0
1510777529.133,769.919,853.745,937.022,767.863,0.000,0.000,0
1510777529.135,766.013,855.321,933.526,770.742,0.000,0.000,0
1510777529.137,774.923,856.144,931.196,778.693,0.000,0.000,0
1510777529.139,769.302,852.648,929.277,792.401,0.000,0.000,0
1510777529.141,757.993,851.894,927.975,777.322,0.000,0.000,0
1510777529.143,773.415,851.483,925.027,778.693,0.000,0.000,0
1510777529.145,783.559,849.838,916.939,789.179,0.000,0.000,0
1510777529.147,789.522,848.878,904.808,774.580,0.000,0.000,0
1510777529.149,788.631,845.177,898.708,768.206,0.000,0.000,0
1510777529.151,765.807,844.149,897.405,756.211,0.000,0.000,0
1510777529.153,730.645,845.726,893.978,753.881,0.000,0.000,0
1510777529.155,713.236,846.274,891.168,765.121,0.000,0.000,0
1510777529.157,763.202,844.012,888.564,779.721,0.000,0.000,0
1510777529.159,786.164,842.161,887.741,789.522,0.000,0.000,0
1510777529.161,762.723,841.133,888.426,779.652,0.000,0.000,0
1510777529.163,752.373,836.884,886.302,780.954,0.000,0.000,0
1510777529.165,759.433,836.747,881.298,761.763,0.000,0.000,0
1510777529.167,792.195,837.843,873.827,747.506,0.000,0.000,0
1510777529.169,781.366,836.130,874.101,789.659,0.000,0.000,0
1510777529.171,785.067,834.074,871.908,767.863,0.000,0.000,0
1510777529.173,794.388,830.715,873.210,757.239,0.000,0.000,0
1510777529.175,775.060,831.126,872.936,764.093,0.000,0.000,0
1510777529.177,756.280,834.690,872.114,760.735,0.000,0.000,0
1510777529.179,773.895,836.267,872.182,766.287,0.000,0.000,0
1510777529.181,776.979,838.460,871.771,782.668,0.000,0.000,0
1510777529.183,774.169,836.815,869.646,778.830,0.000,0.000,0
1510777529.185,762.585,834.142,867.316,764.779,0.000,0.000,0
1510777529.187,763.545,837.226,865.123,742.023,0.000,0.000,0
1510777529.189,776.979,839.351,865.534,751.482,0.000,0.000,0
1510777529.191,779.035,838.666,865.945,773.141,0.000,0.000,0
1510777529.193,789.796,838.392,866.014,782.257,0.000,0.000,0
1510777529.195,785.889,833.388,867.590,772.867,0.000,0.000,0
1510777529.197,779.172,829.893,869.235,778.418,0.000,0.000,0
1510777529.199,775.608,828.796,868.961,784.998,0.000,0.000,0
1510777529.201,771.427,826.671,867.933,783.285,0.000,0.000,0
1510777529.203,755.389,828.522,866.288,767.589,0.000,0.000,0
1510777529.205,737.774,829.070,867.796,759.433,0.000,0.000,0
1510777529.207,776.705,829.755,867.521,752.647,0.000,0.000,0
1510777529.209,772.250,828.933,864.711,757.445,0.000,0.000,0
1510777529.211,765.533,829.824,860.325,745.519,0.000,0.000,0
1510777529.213,767.795,830.578,857.994,744.765,0.000,0.000,0
1510777529.215,770.193,826.877,857.652,761.557,0.000,0.000,0
1510777529.217,763.202,822.422,855.253,770.468,0.000,0.000,0
1510777529.219,763.065,818.035,854.430,792.058,0.000,0.000,0
1510777529.221,781.914,817.144,851.140,788.288,0.000,0.000,0
1510777529.223,778.076,816.870,850.866,773.689,0.000,0.000,0
1510777529.225,769.988,816.664,854.019,756.691,0.000,0.000,0
1510777529.227,757.034,815.568,852.785,739.282,0.000,0.000,0
1510777529.229,749.700,817.487,853.676,729.549,0.000,0.000,0
1510777529.231,743.257,820.160,855.321,733.935,0.000,0.000,0
1510777529.233,758.542,817.075,855.801,743.463,0.000,0.000,0
1510777529.235,755.183,813.580,855.732,751.756,0.000,0.000,0
1510777529.237,754.018,810.975,855.390,762.380,0.000,0.000,0
1510777529.239,755.183,809.330,854.088,770.536,0.000,0.000,0
1510777529.241,755.868,810.016,852.031,775.882,0.000,0.000,0
1510777529.243,780.886,809.810,849.358,776.636,0.000,0.000,0
1510777529.245,779.241,810.564,847.850,760.940,0.000,0.000,0
1510777529.247,772.455,810.770,845.314,752.990,0.000,0.000,0
1510777529.249,767.795,810.221,841.133,741.749,0.000,0.000,0
1510777529.251,764.230,807.960,839.077,738.048,0.000,0.000,0
1510777529.253,765.738,806.177,836.610,740.995,0.000,0.000,0
1510777529.255,773.209,806.246,837.980,756.622,0.000,0.000,0
1510777529.257,776.019,806.315,838.049,767.932,0.000,0.000,0
1510777529.259,774.923,803.299,839.420,783.833,0.000,0.000,0
1510777529.261,771.427,803.093,840.311,771.907,0.000,0.000,0
1510777529.263,767.041,800.146,840.242,754.635,0.000,0.000,0
1510777529.265,762.585,794.320,837.775,748.398,0.000,0.000,0
1510777529.267,760.872,791.647,837.432,749.631,0.000,0.000,0
1510777529.269,758.336,790.687,838.871,747.232,0.000,0.000,0
1510777529.271,761.626,795.417,838.117,748.466,0.000,0.000,0
1510777529.273,763.408,796.787,837.843,749.083,0.000,0.000,0
1510777529.275,767.315,798.090,842.710,755.663,0.000,0.000,0
1510777529.277,762.037,795.965,845.931,759.844,0.000,0.000,0
1510777529.279,760.735,793.497,840.448,767.657,0.000,0.000,0
1510777529.281,769.302,794.868,836.335,759.501,0.000,0.000,0
1510777529.283,767.657,793.840,836.952,760.255,0.000,0.000,0
1510777529.285,763.956,791.236,836.815,753.195,0.000,0.000,0
1510777529.287,772.524,789.591,834.348,742.777,0.000,0.000,0
1510777529.289,761.626,789.248,834.690,753.812,0.000,0.000,0
1510777529.291,760.735,789.248,829.961,749.289,0.000,0.000,0
1510777529.293,768.137,791.647,829.618,731.262,0.000,0.000,1
1510777529.295,765.327,793.360,829.139,731.811,0.000,0.000,0
1510777529.297,776.225,791.236,829.070,747.918,0.000,0.000,0
1510777529.299,778.418,790.619,834.622,753.675,0.000,0.000,0
1510777529.301,772.661,788.014,835.239,758.473,0.000,0.000,0
1510777529.303,762.997,784.244,830.098,754.635,0.000,0.000,0
1510777529.305,723.997,781.503,823.039,747.712,0.000,0.000,0
1510777529.307,719.679,777.116,819.474,737.431,0.000,0.000,0
1510777529.309,760.803,776.225,815.088,733.181,0.000,0.000,0
1510777529.311,769.028,777.870,797.062,723.174,0.000,0.000,0
1510777529.313,765.464,779.241,777.527,730.303,0.000,0.000,0
1510777529.315,767.589,784.107,763.614,733.524,0.000,0.000,0
1510777529.317,774.032,781.845,758.679,742.229,0.000,0.000,0
1510777529.319,755.663,779.172,757.376,756.006,0.000,0.000,0
1510777529.321,764.779,775.608,758.130,757.513,0.000,0.000,0
1510777529.323,766.081,773.278,759.981,753.744,0.000,0.000,0
1510777529.325,763.682,770.947,760.735,750.317,0.000,0.000,0
1510777529.327,771.427,769.577,761.352,735.375,0.000,0.000,0
1510777529.329,765.601,768.823,758.267,727.150,0.000,0.000,0
1510777529.331,754.292,769.028,751.276,722.832,0.000,0.000,0
1510777529.333,743.668,773.141,747.849,728.521,0.000,0.000,0
1510777529.335,752.373,775.951,742.777,733.661,0.000,0.000,0
1510777529.337,768.480,779.035,740.241,736.060,0.000,0.000,0
1510777529.339,766.835,781.297,739.761,738.733,0.000,0.000,0
1510777529.341,765.396,780.886,741.269,762.517,0.000,0.000,0
1510777529.343,760.049,781.297,740.104,752.030,0.000,0.000,0
1510777529.345,737.637,780.475,736.540,732.359,0.000,0.000,0
1510777529.347,735.306,780.269,735.512,720.022,0.000,0.000,0
1510777529.349,756.006,776.842,735.101,717.417,0.000,0.000,0
1510777529.351,744.079,773.004,734.758,714.950,0.000,0.000,0
1510777529.353,758.199,768.000,737.637,723.860,0.000,0.000,0
1510777529.355,756.348,766.218,740.584,735.992,0.000,0.000,0
1510777529.357,748.398,766.013,740.858,741.132,0.000,0.000,0
1510777529.359,742.160,770.605,741.475,748.398,0.000,0.000,0
1510777529.361,740.721,772.250,740.310,757.376,0.000,0.000,0
1510777529.363,752.441,774.717,740.584,748.329,0.000,0.000,0
1510777529.365,744.833,777.459,740.036,727.081,0.000,0.000,0
1510777529.367,754.086,775.060,731.194,722.421,0.000,0.000,0
1510777529.369,758.199,775.814,722.009,723.517,0.000,0.000,0
1510777529.371,733.524,773.072,730.920,729.000,0.000,0.000,0
1510777529.373,749.837,767.041,744.217,730.783,0.000,0.000,0
1510777529.375,764.025,766.287,756.485,739.556,0.000,0.000,0
1510777529.377,757.102,771.290,763.339,745.656,0.000,0.000,0
1510777529.379,774.100,772.867,766.766,750.111,0.000,0.000,0
1510777529.381,779.035,775.197,769.508,749.700,0.000,0.000,0
1510777529.383,742.777,774.717,771.839,757.719,0.000,0.000,0
1510777529.385,733.456,773.346,775.608,742.846,0.000,0.000,0
1510777529.387,764.299,772.318,775.882,735.238,0.000,0.000,0
1510777529.389,766.698,775.266,776.636,728.315,0.000,0.000,0
1510777529.391,749.357,777.527,777.664,724.340,0.000,0.000,0
1510777529.393,735.923,773.346,776.088,737.362,0.000,0.000,0
1510777529.395,737.088,770.947,776.294,741.064,0.000,0.000,0
1510777529.397,772.867,774.237,777.939,749.837,0.000,0.000,0
1510777529.399,777.870,777.802,780.475,761.146,0.000,0.000,0
1510777529.401,747.849,778.076,782.188,763.614,0.000,0.000,0
1510777529.403,753.332,776.773,780.338,752.921,0.000,0.000,0
1510777529.405,774.854,775.677,779.447,748.260,0.000,0.000,0
1510777529.407,779.241,775.128,780.406,743.188,0.000,0.000,0
1510777529.409,733.524,770.947,782.325,744.559,0.000,0.000,0
1510777529.411,715.704,767.726,778.967,737.225,0.000,0.000,0
1510777529.413,755.594,771.153,774.169,729.069,0.000,0.000,0
1510777529.415,749.014,771.496,773.621,739.007,0.000,0.000,0
1510777529.417,755.457,772.250,774.443,756.280,0.000,0.000,0
1510777529.419,793.977,775.060,776.157,761.900,0.000,0.000,0
1510777529.421,785.204,775.403,774.991,762.997,0.000,0.000,0
1510777529.423,767.589,773.278,775.334,761.489,0.000,0.000,0
1510777529.425,772.044,769.234,776.499,760.187,0.000,0.000,0
1510777529.427,755.731,765.670,778.761,738.253,0.000,0.000,0
1510777529.429,744.079,769.851,776.499,726.807,0.000,0.000,0
1510777529.431,764.162,773.689,772.387,735.443,0.000,0.000,0
1510777529.433,772.729,771.701,771.907,744.491,0.000,0.000,0
1510777529.435,761.489,769.988,774.100,745.382,0.000,0.000,0
1510777529.437,760.803,768.549,774.100,750.522,0.000,0.000,0
1510777529.439,748.398,766.561,772.181,769.302,0.000,0.000,0
1510777529.441,764.505,765.327,769.851,770.879,0.000,0.000,0
1510777529.443,769.988,764.984,767.109,770.810,0.000,0.000,0
1510777529.445,756.006,766.766,766.150,753.812,0.000,0.000,0
1510777529.447,763.408,772.113,766.698,731.742,0.000,0.000,0
1510777529.449,773.758,770.536,771.770,732.496,0.000,0.000,0
1510777529.451,758.884,767.932,770.399,718.240,0.000,0.000,0
1510777529.453,729.891,762.174,765.738,702.064,0.000,0.000,0
1510777529.455,761.352,762.106,765.259,716.389,0.000,0.000,0
1510777529.457,769.782,769.577,763.819,755.526,0.000,0.000,0
1510777529.459,779.995,772.729,767.178,788.562,0.000,0.000,0
1510777529.461,776.431,774.100,768.000,772.592,0.000,0.000,0
1510777529.463,767.383,769.371,766.698,759.021,0.000,0.000,0
1510777529.465,782.736,764.505,769.302,760.392,0.000,0.000,0
1510777529.467,773.552,761.763,769.577,750.522,0.000,0.000,0
1510777529.469,751.825,762.928,769.508,724.819,0.000,0.000,0
1510777529.471,767.041,767.178,772.250,729.549,0.000,0.000,0
1510777529.473,766.355,766.629,774.032,743.188,0.000,0.000,0
1510777529.475,772.867,760.666,777.870,756.143,0.000,0.000,0
1510777529.477,777.733,760.940,777.733,758.542,0.000,0.000,0
1510777529.479,776.911,762.448,779.447,753.332,0.000,0.000,0
1510777529.481,774.443,761.352,780.886,763.819,0.000,0.000,0
1510777529.483,778.144,757.102,778.555,755.937,0.000,0.000,0
1510777529.485,771.496,753.949,778.898,746.890,0.000,0.000,0
1510777529.487,762.723,752.921,775.060,736.060,0.000,0.000,0
1510777529.489,768.891,756.348,773.621,732.085,0.000,0.000,0
1510777529.491,767.795,756.554,772.867,736.608,0.000,0.000,0
1510777529.493,767.452,755.457,771.976,747.575,0.000,0.000,0
1510777529.495,763.339,755.183,774.169,743.531,0.000,0.000,0
1510777529.497,760.735,756.485,775.266,739.419,0.000,0.000,0
1510777529.499,760.118,754.840,776.019,754.361,0.000,0.000,0
1510777529.501,771.359,755.594,780.269,761.283,0.000,0.000,0
1510777529.503,771.222,756.760,785.547,757.651,0.000,0.000,0
1510777529.505,756.554,755.252,786.095,749.494,0.000,0.000,0
1510777529.507,769.851,751.688,787.397,740.858,0.000,0.000,0
1510777529.509,759.090,752.716,788.083,736.883,0.000,0.000,0
1510777529.511,754.840,752.099,787.192,734.552,0.000,0.000,0
1510777529.513,768.069,750.934,788.562,720.501,0.000,0.000,0
1510777529.515,770.673,751.345,789.316,727.287,0.000,0.000,0
1510777529.517,758.336,749.426,794.046,754.498,0.000,0.000,0
1510777529.519,769.165,749.974,792.401,756.074,0.000,0.000,0
1510777529.521,791.236,750.454,794.114,761.694,0.000,0.000,0
1510777529.523,785.615,749.289,794.594,758.473,0.000,0.000,0
1510777529.525,776.225,748.398,797.336,758.473,0.000,0.000,0
1510777529.527,773.415,746.136,798.090,757.856,0.000,0.000,0
1510777529.529,765.327,740.515,795.485,735.512,0.000,0.000,0
1510777529.531,760.324,738.528,792.401,720.227,0.000,0.000,0
1510777529.533,742.366,740.378,790.345,706.930,0.000,0.000,0
1510777529.535,743.257,741.269,789.316,707.136,0.000,0.000,0
1510777529.537,765.807,740.927,792.743,738.459,0.000,0.000,0
1510777529.539,777.939,737.362,794.388,764.779,0.000,0.000,0
1510777529.541,776.294,738.048,791.921,753.538,0.000,0.000,0
1510777529.543,767.041,740.241,790.482,748.672,0.000,0.000,0
1510777529.545,758.267,738.459,789.316,737.637,0.000,0.000,0
1510777529.547,754.155,732.633,788.425,733.524,0.000,0.000,0
1510777529.549,753.332,731.331,790.413,736.197,0.000,0.000,0
1510777529.551,760.803,731.605,794.183,730.714,0.000,0.000,0
1510777529.553,750.385,728.315,796.239,733.524,0.000,0.000,0
1510777529.555,758.473,729.000,796.719,739.761,0.000,0.000,0
1510777529.557,758.953,729.960,797.336,750.454,0.000,0.000,0
1510777529.559,751.345,725.916,798.501,762.997,0.000,0.000,0
1510777529.561,775.266,724.271,798.158,762.723,0.000,0.000,0
1510777529.563,773.552,724.134,797.953,762.174,0.000,0.000,0
1510777529.565,766.424,720.638,796.102,750.042,0.000,0.000,0
1510777529.567,762.723,720.501,796.650,733.661,0.000,0.000,0
1510777529.569,757.308,721.255,797.815,720.638,0.000,0.000,0
1510777529.571,755.320,721.187,798.981,729.891,0.000,0.000,0
1510777529.573,760.118,722.283,800.694,738.322,0.000,0.000,0
1510777529.575,765.875,725.436,800.420,747.438,0.000,0.000,0
1510777529.577,772.181,725.573,801.859,755.937,0.000,0.000,0
1510777529.579,765.533,725.436,798.981,755.389,0.000,0.000,0
1510777529.581,769.645,726.122,798.090,769.440,0.000,0.000,0
1510777529.583,769.508,729.960,793.772,770.947,0.000,0.000,0
1510777529.585,768.137,732.565,792.606,759.227,0.000,0.000,0
1510777529.587,759.707,733.250,793.634,752.578,0.000,0.000,0
1510777529.589,755.594,733.524,794.663,741.955,0.000,0.000,0
1510777529.591,754.361,732.702,793.018,737.705,0.000,0.000,0
1510777529.593,761.626,733.250,791.784,747.164,0.000,0.000,0
1510777529.595,769.577,733.044,792.469,756.417,0.000,0.000,0
1510777529.597,774.580,734.826,791.784,764.779,0.000,0.000,0
1510777529.599,784.176,736.677,792.264,779.995,0.000,0.000,0
1510777529.601,788.220,739.076,792.127,788.014,0.000,0.000,0
1510777529.603,787.192,740.310,795.759,781.777,0.000,0.000,0
1510777529.605,775.471,738.939,795.759,765.601,0.000,0.000,0
1510777529.607,776.362,737.362,798.501,765.670,0.000,0.000,0
1510777529.609,770.468,737.705,799.529,758.884,0.000,0.000,0
1510777529.611,769.440,737.774,799.803,757.239,0.000,0.000,0
1510777529.613,770.742,738.802,801.517,762.585,0.000,0.000,0
1510777529.615,780.817,740.036,801.517,779.789,0.000,0.000,0
1510777529.617,784.656,742.640,801.174,783.765,0.000,0.000,0
1510777529.619,777.390,743.668,800.214,784.656,0.000,0.000,0
1510777529.621,779.858,743.326,800.009,788.425,0.000,0.000,0
1510777529.623,782.188,743.805,800.694,786.780,0.000,0.000,0
1510777529.625,776.157,744.079,803.162,777.939,0.000,0.000,0
1510777529.627,772.935,744.628,804.395,771.701,0.000,0.000,0
1510777529.629,760.529,748.123,805.424,758.884,0.000,0.000,0
1510777529.631,764.368,746.684,802.545,768.137,0.000,0.000,0
1510777529.633,778.007,746.478,800.352,772.044,0.000,0.000,0
1510777529.635,777.939,749.494,801.517,772.113,0.000,0.000,0
1510777529.637,783.696,754.566,802.750,777.048,0.000,0.000,0
1510777529.639,790.070,756.143,801.722,791.578,0.000,0.000,0
1510777529.641,789.316,754.086,800.077,799.872,0.000,0.000,0
1510777529.643,783.559,750.591,800.352,796.445,0.000,0.000,0
1510777529.645,774.923,753.127,803.916,782.462,0.000,0.000,0
1510777529.647,778.830,756.554,807.480,774.786,0.000,0.000,0
1510777529.649,785.752,757.308,810.358,770.947,0.000,0.000,0
1510777529.651,784.861,761.283,815.225,773.209,0.000,0.000,0
1510777529.653,781.845,760.803,819.474,772.113,0.000,0.000,0
1510777529.655,790.207,762.654,822.559,783.765,0.000,0.000,0
1510777529.657,795.554,766.218,824.341,792.401,0.000,0.000,0
1510777529.659,792.812,767.863,825.575,799.529,0.000,0.000,0
1510777529.661,798.912,769.782,827.973,809.673,0.000,0.000,0
1510777529.663,790.961,771.222,829.481,802.408,0.000,0.000,0
1510777529.665,787.329,770.468,830.167,784.587,0.000,0.000,0
1510777529.667,778.555,769.234,828.179,763.202,0.000,0.000,0
1510777529.669,775.334,768.000,828.042,763.065,0.000,0.000,0
1510777529.671,779.241,771.085,826.191,763.065,0.000,0.000,0
1510777529.673,785.752,772.935,825.026,775.882,0.000,0.000,0
1510777529.675,782.874,771.085,825.575,772.387,0.000,0.000,0
1510777529.677,787.260,770.399,825.712,780.475,0.000,0.000,0
1510777529.679,794.046,773.141,831.263,792.058,0.000,0.000,0
1510777529.681,795.828,776.499,834.211,797.953,0.000,0.000,0
1510777529.683,790.824,776.705,831.263,793.429,0.000,0.000,0
1510777529.685,778.555,777.048,830.235,777.733,0.000,0.000,0
1510777529.687,780.063,775.128,829.139,766.904,0.000,0.000,0
1510777529.689,778.007,775.677,830.304,753.607,0.000,0.000,0
1510777529.691,774.237,771.564,833.114,759.296,0.000,0.000,0
1510777529.693,773.141,772.113,836.815,774.649,0.000,0.000,0
1510777529.695,783.765,773.483,837.364,783.559,0.000,0.000,0
1510777529.697,789.522,773.895,837.158,782.874,0.000,0.000,0
1510777529.699,790.687,774.649,836.473,782.668,0.000,0.000,0
1510777529.701,792.058,775.814,834.211,785.547,0.000,0.000,0
1510777529.703,788.700,776.842,830.509,783.011,0.000,0.000,0
1510777529.705,784.176,777.870,832.292,769.371,0.000,0.000,0
1510777529.707,779.858,775.814,834.759,770.331,0.000,0.000,0
1510777529.709,771.427,774.375,836.541,758.542,0.000,0.000,0
1510777529.711,775.060,774.100,837.364,754.086,0.000,0.000,0
1510777529.713,773.415,772.867,838.255,753.127,0.000,0.000,0
1510777529.715,778.144,766.835,840.516,764.984,0.000,0.000,0
1510777529.717,777.939,765.121,842.298,773.141,0.000,0.000,0
1510777529.719,780.338,765.396,842.436,778.487,0.000,0.000,0
1510777529.721,779.858,767.657,841.613,779.378,0.000,0.000,0
1510777529.723,778.898,769.234,841.065,776.636,0.000,0.000,0
1510777529.725,774.375,771.016,840.928,768.617,0.000,0.000,0
1510777529.727,766.355,768.617,841.202,765.121,0.000,0.000,0
1510777529.729,765.396,766.287,842.847,751.962,0.000,0.000,0
1510777529.731,772.044,768.617,842.573,751.482,0.000,0.000,0
1510777529.733,772.661,769.371,843.464,758.747,0.000,0.000,0
1510777529.735,776.636,768.137,843.052,765.464,0.000,0.000,0
1510777529.737,781.708,768.343,843.327,766.218,0.000,0.000,0
1510777529.739,783.011,772.181,845.177,777.733,0.000,0.000,0
1510777529.741,784.793,772.524,843.669,788.357,0.000,0.000,0
1510777529.743,786.095,773.209,845.931,785.547,0.000,0.000,0
1510777529.745,780.200,773.758,847.508,764.642,0.000,0.000,0
1510777529.747,778.144,773.826,848.193,751.071,0.000,0.000,0
1510777529.748,774.923,773.621,848.193,753.401,0.000,0.000,0
1510777529.750,769.440,774.649,848.124,751.825,0.000,0.000,0
1510777529.752,769.919,774.923,848.741,749.631,0.000,0.000,0
1510777529.754,775.745,775.471,846.822,757.513,0.000,0.000,0
1510777529.756,768.274,774.580,840.996,772.318,0.000,0.000,0
1510777529.758,773.621,768.069,840.379,784.039,0.000,0.000,0
1510777529.760,785.204,764.368,840.174,781.845,0.000,0.000,0
1510777529.762,776.911,765.464,840.311,771.839,0.000,0.000,0
1510777529.764,781.983,767.863,840.448,761.352,0.000,0.000,0
1510777529.766,776.157,767.041,841.133,763.134,0.000,0.000,0
1510777529.768,772.113,766.013,842.161,754.703,0.000,0.000,0
1510777529.770,771.290,762.928,841.682,754.635,0.000,0.000,0
1510777529.772,771.496,762.860,838.255,753.675,0.000,0.000,0
1510777529.774,772.044,762.860,835.856,767.657,0.000,0.000,0
1510777529.776,767.932,764.436,836.678,764.436,0.000,0.000,0
1510777529.778,771.701,768.274,836.952,765.670,0.000,0.000,0
1510777529.780,778.076,772.250,835.033,771.839,0.000,0.000,0
1510777529.782,777.048,772.729,832.908,772.318,0.000,0.000,0
1510777529.784,769.234,771.222,832.497,758.199,0.000,0.000,0
1510777529.786,762.448,769.440,835.102,747.712,0.000,0.000,0
1510777529.788,757.171,767.178,834.759,745.176,0.000,0.000,0
1510777529.790,759.227,767.452,831.880,747.712,0.000,0.000,0
1510777529.792,766.287,771.633,830.098,754.909,0.000,0.000,0
1510777529.794,768.960,771.976,831.195,761.078,0.000,0.000,0
1510777529.796,769.165,769.714,829.070,757.034,0.000,0.000,0
1510777529.798,772.387,766.698,827.494,762.106,0.000,0.000,0
1510777529.800,776.568,767.246,827.288,767.795,0.000,0.000,0
1510777529.802,775.334,771.290,826.671,768.480,0.000,0.000,0
1510777529.804,771.701,770.125,828.796,758.816,0.000,0.000,0
1510777529.806,774.169,767.246,827.699,758.747,0.000,0.000,0
1510777529.808,773.621,766.972,827.425,751.071,0.000,0.000,0
1510777529.810,764.916,768.137,826.603,747.027,0.000,0.000,0
1510777529.812,765.396,769.302,828.453,752.990,0.000,0.000,0
1510777529.814,779.652,769.028,830.167,765.190,0.000,0.000,0
1510777529.816,782.120,769.097,831.538,772.935,0.000,0.000,0
1510777529.818,778.898,767.041,832.360,781.845,0.000,0.000,0
1510777529.820,781.777,768.891,835.033,786.986,0.000,0.000,0
1510777529.822,787.192,770.536,835.513,787.466,0.000,0.000,0
1510777529.824,783.833,769.371,831.126,776.979,0.000,0.000,0
1510777529.826,782.874,768.069,828.453,772.592,0.000,0.000,0
1510777529.828,775.403,765.944,827.699,756.417,0.000,0.000,0
1510777529.830,767.520,763.408,828.385,750.317,0.000,0.000,0
1510777529.832,771.564,758.747,826.191,751.619,0.000,0.000,0
1510777529.834,774.854,757.993,823.244,757.376,0.000,0.000,0
1510777529.836,774.580,757.171,820.708,763.888,0.000,0.000,0
1510777529.838,779.995,752.990,822.285,781.297,0.000,0.000,0
1510777529.840,780.475,755.115,823.861,783.011,0.000,0.000,0
1510777529.842,775.403,755.320,823.655,772.592,0.000,0.000,0
1510777529.844,768.069,756.074,823.313,758.199,0.000,0.000,0
1510777529.846,765.396,755.389,821.188,748.398,0.000,0.000,0
1510777529.848,766.287,753.401,822.970,744.354,0.000,0.000,0
1510777529.850,767.109,752.167,824.135,750.796,0.000,0.000,0
1510777529.852,768.891,753.264,823.998,745.999,0.000,0.000,0
1510777529.854,766.904,754.224,823.313,746.753,0.000,0.000,0
1510777529.856,768.891,751.345,825.232,758.542,0.000,0.000,0
1510777529.858,775.540,750.454,826.466,773.278,0.000,0.000,0
1510777529.860,778.213,747.918,826.123,780.680,0.000,0.000,0
1510777529.862,773.072,745.382,826.260,783.353,0.000,0.000,0
1510777529.864,763.545,745.450,824.546,765.670,0.000,0.000,0
1510777529.866,759.844,747.506,822.833,748.603,0.000,0.000,0
1510777529.868,765.053,748.123,821.325,742.366,0.000,0.000,0
1510777529.870,768.411,744.902,819.886,746.958,0.000,0.000,0
1510777529.872,762.585,743.257,815.430,742.572,0.000,0.000,0
1510777529.874,766.150,742.640,812.757,748.877,0.000,0.000,0
1510777529.876,768.000,741.132,810.290,754.635,0.000,0.000,0
1510777529.878,778.487,740.104,809.947,765.259,0.000,0.000,0
1510777529.880,780.475,739.007,809.810,771.976,0.000,0.000,0
1510777529.882,774.032,738.185,811.387,774.786,0.000,0.000,0
1510777529.884,767.863,735.580,811.866,762.585,0.000,0.000,0
1510777529.886,759.433,735.101,810.427,748.809,0.000,0.000,0
1510777529.888,756.143,735.512,807.685,738.391,0.000,0.000,0
1510777529.890,756.622,736.746,806.452,738.185,0.000,0.000,0
1510777529.892,754.361,731.399,803.916,739.007,0.000,0.000,0
1510777529.894,755.183,726.739,801.791,745.862,0.000,0.000,1
1510777529.896,759.707,725.848,801.037,750.796,0.000,0.000,0
1510777529.898,765.670,722.283,803.230,768.000,0.000,0.000,0
1510777529.900,769.919,719.610,800.352,769.714,0.000,0.000,0
1510777529.902,768.960,720.776,798.912,758.130,0.000,0.000,0
1510777529.904,766.629,722.900,799.049,760.803,0.000,0.000,0
1510777529.906,757.582,723.928,797.815,744.217,0.000,0.000,0
1510777529.908,754.703,724.408,795.142,730.577,0.000,0.000,0
1510777529.910,750.796,720.707,794.114,726.396,0.000,0.000,0
1510777529.912,753.264,719.131,794.868,737.705,0.000,0.000,0
1510777529.914,754.498,715.018,793.429,746.478,0.000,0.000,0
1510777529.916,753.332,712.345,793.018,751.482,0.000,0.000,0
1510777529.918,753.332,711.523,790.550,756.211,0.000,0.000,0
1510777529.920,752.921,707.958,789.385,759.912,0.000,0.000,0
1510777529.922,761.969,705.971,788.700,755.663,0.000,0.000,0
1510777529.924,758.062,701.995,788.768,743.874,0.000,0.000,0
1510777529.926,755.526,700.762,788.014,742.983,0.000,0.000,0
1510777529.928,748.398,701.721,787.534,728.178,0.000,0.000,0
1510777529.930,744.011,701.858,784.998,724.340,0.000,0.000,0
1510777529.932,745.245,701.995,783.696,727.904,0.000,0.000,0
1510777529.934,752.099,703.983,782.462,736.197,0.000,0.000,0
1510777529.936,757.102,701.447,781.983,743.600,0.000,0.000,0
1510777529.938,759.501,700.487,782.188,758.884,0.000,0.000,0
1510777529.940,757.993,701.310,781.571,756.622,0.000,0.000,0
1510777529.942,760.529,699.939,778.830,749.220,0.000,0.000,0
1510777529.944,754.977,698.980,776.773,734.278,0.000,0.000,0
1510777529.946,737.774,697.403,774.923,720.981,0.000,0.000,0
1510777529.948,732.427,695.347,776.088,714.127,0.000,0.000,0
1510777529.950,747.369,695.964,778.007,722.832,0.000,0.000,0
1510777529.952,752.921,697.540,778.007,722.695,0.000,0.000,0
1510777529.954,754.498,695.895,777.116,727.493,0.000,0.000,0
1510777529.956,751.962,695.964,775.128,731.536,0.000,0.000,0
1510777529.958,752.099,694.182,773.963,736.266,0.000,0.000,0
1510777529.960,758.747,691.783,775.540,749.357,0.000,0.000,0
1510777529.962,752.510,694.182,773.826,748.192,0.000,0.000,0
1510777529.964,747.232,695.278,772.455,734.964,0.000,0.000,0
1510777529.966,735.992,693.839,772.250,722.763,0.000,0.000,0
1510777529.968,732.222,691.509,770.605,714.881,0.000,0.000,0
1510777529.970,749.631,686.025,770.742,725.025,0.000,0.000,0
1510777529.972,745.793,681.913,770.399,720.090,0.000,0.000,0
1510777529.974,737.294,677.869,767.315,716.937,0.000,0.000,0
1510777529.976,750.317,674.236,768.137,730.920,0.000,0.000,0
1510777529.978,763.545,673.825,768.686,741.269,0.000,0.000,0
1510777529.980,766.629,674.785,766.218,747.781,0.000,0.000,0
1510777529.982,760.187,674.236,767.795,750.522,0.000,0.000,0
1510777529.984,753.812,675.127,766.698,741.612,0.000,0.000,0
1510777529.986,752.990,675.881,768.343,733.319,0.000,0.000,0
1510777529.988,748.672,676.430,768.274,726.190,0.000,0.000,0
1510777529.990,733.661,676.018,767.041,726.739,0.000,0.000,0
1510777529.992,739.556,678.075,764.984,723.860,0.000,0.000,0
1510777529.994,755.183,679.514,765.259,729.275,0.000,0.000,0
1510777529.996,747.506,677.047,762.654,732.153,0.000,0.000,0
1510777529.998,743.120,678.280,761.352,734.072,0.000,0.000,0
1510777530.000,758.953,682.256,764.573,741.749,0.000,0.000,0
1510777530.002,767.520,683.010,766.150,745.108,0.000,0.000,0
1510777530.004,763.682,684.380,765.464,744.559,0.000,0.000,0
1510777530.006,756.622,686.437,766.424,734.552,0.000,0.000,0
1510777530.008,749.700,684.929,768.411,720.090,0.000,0.000,0
1510777530.010,747.506,679.788,769.371,713.647,0.000,0.000,0
1510777530.012,752.236,680.953,771.153,721.941,0.000,0.000,0
1510777530.014,758.747,686.505,773.004,734.072,0.000,0.000,0
1510777530.016,759.227,689.041,771.976,741.475,0.000,0.000,0
1510777530.018,758.130,689.384,768.686,748.603,0.000,0.000,0
1510777530.020,757.034,690.686,769.508,754.635,0.000,0.000,0
1510777530.022,758.404,689.864,769.645,755.389,0.000,0.000,0
1510777530.024,756.074,689.727,771.701,755.252,0.000,0.000,0
1510777530.026,744.696,689.315,768.343,736.266,0.000,0.000,0
1510777530.028,742.983,689.658,765.259,728.384,0.000,0.000,0
1510777530.030,745.382,690.480,763.065,720.570,0.000,0.000,0
1510777530.032,752.990,692.537,765.053,726.602,0.000,0.000,0
1510777530.034,750.659,693.770,766.081,734.484,0.000,0.000,0
1510777530.036,748.466,695.347,767.795,744.491,0.000,0.000,0
1510777530.038,752.099,695.964,768.343,751.825,0.000,0.000,0
1510777530.040,756.485,694.730,767.178,755.594,0.000,0.000,0
1510777530.042,761.694,696.718,769.508,759.981,0.000,0.000,0
1510777530.044,761.489,697.335,771.359,756.280,0.000,0.000,0
1510777530.046,748.055,697.198,772.113,741.338,0.000,0.000,0
1510777530.048,746.136,696.923,772.318,733.387,0.000,0.000,0
1510777530.050,756.006,696.855,775.197,735.649,0.000,0.000,0
1510777530.052,760.392,695.964,776.568,739.419,0.000,0.000,0
1510777530.054,764.505,695.690,776.431,748.740,0.000,0.000,0
1510777530.056,750.522,694.182,774.923,764.025,0.000,0.000,0
1510777530.058,760.735,695.347,774.580,759.570,0.000,0.000,0
1510777530.060,772.798,697.609,776.773,759.433,0.000,0.000,0
1510777530.062,762.174,699.254,778.076,762.106,0.000,0.000,0
1510777530.064,767.520,699.254,778.418,760.598,0.000,0.000,0
1510777530.066,758.610,700.899,777.596,749.563,0.000,0.000,0
1510777530.068,753.195,702.270,774.032,739.350,0.000,0.000,0
1510777530.070,754.224,702.132,774.991,738.665,0.000,0.000,0
1510777530.072,752.578,700.419,774.854,737.979,0.000,0.000,0
1510777530.074,758.747,701.241,773.552,750.934,0.000,0.000,0
1510777530.076,759.570,700.899,774.580,749.220,0.000,0.000,0
1510777530.078,758.816,696.855,774.306,749.631,0.000,0.000,0
1510777530.080,773.278,700.282,771.976,759.570,0.000,0.000,0
1510777530.082,775.334,703.366,773.895,766.561,0.000,0.000,0
1510777530.084,764.779,701.995,771.770,757.925,0.000,0.000,0
1510777530.086,751.071,699.185,770.331,741.338,0.000,0.000,0
1510777530.088,741.886,697.403,767.383,730.714,0.000,0.000,0
1510777530.090,744.079,699.459,764.230,734.347,0.000,0.000,0
1510777530.092,753.744,701.378,765.121,730.371,0.000,0.000,0
1510777530.094,756.280,702.612,766.150,730.166,0.000,0.000,0
1510777530.096,755.594,701.790,769.165,739.419,0.000,0.000,0
1510777530.098,755.252,698.705,769.371,752.236,0.000,0.000,0
1510777530.100,749.700,701.310,770.810,762.517,0.000,0.000,0
1510777530.102,760.392,705.765,772.661,764.368,0.000,0.000,0
1510777530.104,774.375,708.370,770.193,753.949,0.000,0.000,0
1510777530.106,767.520,707.890,768.960,740.241,0.000,0.000,0
1510777530.108,764.093,709.261,770.879,734.347,0.000,0.000,0
1510777530.110,759.981,711.523,770.810,735.101,0.000,0.000,0
1510777530.112,761.489,714.264,770.879,742.572,0.000,0.000,0
1510777530.114,769.097,713.784,771.496,749.357,0.000,0.000,0
1510777530.116,771.907,710.426,773.004,758.130,0.000,0.000,0
1510777530.118,774.237,710.494,772.661,761.969,0.000,0.000,0
1510777530.120,777.048,713.099,774.512,770.879,0.000,0.000,0
1510777530.122,776.019,710.083,775.814,772.592,0.000,0.000,0
1510777530.124,769.508,712.825,775.745,772.867,0.000,0.000,0
1510777530.126,762.928,718.993,778.487,757.788,0.000,0.000,0
1510777530.128,763.271,720.433,777.390,737.294,0.000,0.000,0
1510777530.130,766.218,721.667,775.060,742.160,0.000,0.000,0
1510777530.132,770.673,723.723,771.701,747.918,0.000,0.000,0
1510777530.134,770.399,722.489,775.951,753.058,0.000,0.000,0
1510777530.136,766.013,721.255,778.418,760.392,0.000,0.000,0
1510777530.138,775.745,723.312,776.911,766.904,0.000,0.000,0
1510777530.140,782.942,724.614,777.048,783.902,0.000,0.000,0
1510777530.142,780.200,725.299,778.555,784.519,0.000,0.000,0
1510777530.144,774.923,726.670,778.624,774.786,0.000,0.000,0
1510777530.146,777.253,729.343,780.543,764.230,0.000,0.000,0
1510777530.148,781.640,730.234,782.325,758.610,0.000,0.000,0
1510777530.150,781.160,730.371,785.067,756.074,0.000,0.000,0
1510777530.152,780.269,732.770,788.768,757.925,0.000,0.000,0
1510777530.154,782.668,738.528,789.453,766.904,0.000,0.000,0
1510777530.156,794.183,742.777,787.329,781.571,0.000,0.000,0
1510777530.158,797.678,744.765,788.151,788.288,0.000,0.000,0
1510777530.160,795.896,746.684,790.413,792.195,0.000,0.000,0
1510777530.162,790.756,748.603,790.961,787.329,0.000,0.000,0
1510777530.164,782.051,744.011,790.824,784.861,0.000,0.000,0
1510777530.166,773.963,745.519,789.865,773.346,0.000,0.000,0
1510777530.168,775.540,747.232,786.780,766.013,0.000,0.000,0
1510777530.170,784.587,751.825,784.519,768.480,0.000,0.000,0
1510777530.172,786.643,754.224,784.381,773.826,0.000,0.000,0
1510777530.174,780.612,754.498,783.970,770.673,0.000,0.000,0
1510777530.176,784.930,751.825,785.615,780.680,0.000,0.000,0
1510777530.178,793.909,753.058,787.466,788.562,0.000,0.000,0
1510777530.180,797.130,755.115,787.534,797.062,0.000,0.000,0
1510777530.182,798.706,755.457,787.877,799.940,0.000,0.000,0
1510777530.184,787.329,753.949,789.591,790.756,0.000,0.000,0
1510777530.186,773.895,752.853,790.002,777.733,0.000,0.000,0
1510777530.188,795.965,753.949,793.223,774.032,0.000,0.000,0
1510777530.190,798.981,754.566,791.098,772.318,0.000,0.000,0
1510777530.192,795.896,759.844,788.974,780.132,0.000,0.000,0
1510777530.194,794.114,761.078,786.301,777.253,0.000,0.000,0
1510777530.196,796.513,760.461,784.998,779.309,0.000,0.000,0
1510777530.198,787.260,760.735,785.615,785.204,0.000,0.000,0
1510777530.200,799.049,761.626,784.793,793.155,0.000,0.000,0
1510777530.202,807.068,761.969,784.793,800.283,0.000,0.000,0
1510777530.204,801.037,765.875,784.176,797.541,0.000,0.000,0
1510777530.206,791.784,766.492,782.668,785.135,0.000,0.000,0
1510777530.208,787.192,767.520,783.902,780.543,0.000,0.000,0
1510777530.210,788.631,768.686,785.341,773.346,0.000,0.000,0
1510777530.212,790.961,769.302,785.478,772.318,0.000,0.000,0
1510777530.214,798.295,770.468,788.014,782.668,0.000,0.000,0
1510777530.216,796.513,766.698,787.740,787.534,0.000,0.000,0
1510777530.218,800.146,766.972,789.385,801.859,0.000,0.000,0
1510777530.220,801.174,769.988,788.425,801.654,0.000,0.000,0
1510777530.222,803.504,772.181,787.055,800.214,0.000,0.000,0
1510777530.224,804.190,775.540,790.482,798.981,0.000,0.000,0
1510777530.226,798.432,774.375,792.606,793.018,0.000,0.000,0
1510777530.228,789.111,773.141,793.634,776.568,0.000,0.000,0
1510777530.230,784.930,774.306,793.977,773.826,0.000,0.000,0
1510777530.232,785.547,775.060,794.251,776.568,0.000,0.000,0
1510777530.234,790.893,774.923,794.731,783.765,0.000,0.000,0
1510777530.236,796.033,773.346,795.485,790.207,0.000,0.000,0
1510777530.238,800.146,772.935,794.663,802.750,0.000,0.000,0
1510777530.240,800.489,774.375,797.541,808.302,0.000,0.000,0
1510777530.242,804.601,775.060,799.118,808.919,0.000,0.000,0
1510777530.244,801.517,771.633,798.021,797.199,0.000,0.000,0
1510777530.246,802.202,769.234,799.460,788.151,0.000,0.000,0
1510777530.248,799.940,772.729,800.489,783.011,0.000,0.000,0
1510777530.250,794.800,776.088,803.162,782.051,0.000,0.000,0
1510777530.252,790.139,780.063,803.573,783.833,0.000,0.000,0
1510777530.254,792.812,783.490,804.258,786.986,0.000,0.000,0
1510777530.256,798.706,783.353,803.299,792.195,0.000,0.000,0
1510777530.258,810.016,782.462,803.779,802.545,0.000,0.000,0
1510777530.260,806.109,780.338,801.517,805.835,0.000,0.000,0
1510777530.262,803.025,780.680,802.682,800.214,0.000,0.000,0
1510777530.264,802.202,781.366,806.931,790.961,0.000,0.000,0
1510777530.266,807.137,783.696,807.480,784.313,0.000,0.000,0
1510777530.268,799.049,780.406,809.193,774.032,0.000,0.000,0
1510777530.270,793.977,777.527,811.592,773.621,0.000,0.000,0
1510777530.272,796.650,780.475,813.511,781.229,0.000,0.000,0
1510777530.274,793.292,782.736,815.910,785.958,0.000,0.000,0
1510777530.276,794.183,785.684,816.938,790.619,0.000,0.000,0
1510777530.278,801.311,789.385,818.241,793.909,0.000,0.000,0
1510777530.280,813.854,790.893,817.555,804.670,0.000,0.000,0
1510777530.282,814.951,792.264,817.966,808.508,0.000,0.000,0
1510777530.284,811.387,791.373,816.801,804.944,0.000,0.000,0
1510777530.286,802.750,793.292,815.019,793.292,0.000,0.000,0
1510777530.288,778.487,791.304,813.854,779.858,0.000,0.000,0
1510777530.290,791.167,788.905,812.483,773.209,0.000,0.000,0
1510777530.292,801.174,786.986,811.044,784.450,0.000,0.000,0
1510777530.294,796.239,784.519,809.330,781.434,0.000,0.000,0
1510777530.296,799.049,784.998,809.467,783.902,0.000,0.000,0
1510777530.298,807.617,788.357,809.742,798.569,0.000,0.000,0
1510777530.300,803.573,788.151,807.617,804.121,0.000,0.000,0
1510777530.302,792.881,786.095,808.165,808.371,0.000,0.000,0
1510777530.304,797.199,785.067,808.234,802.682,0.000,0.000,0
1510777530.306,795.279,784.930,806.657,792.881,0.000,0.000,0
1510777530.308,782.805,783.422,809.947,782.394,0.000,0.000,0
1510777530.310,781.640,782.531,814.128,774.375,0.000,0.000,0
1510777530.312,794.731,783.353,814.608,780.543,0.000,0.000,0
1510777530.314,801.585,784.519,814.471,789.796,0.000,0.000,0
1510777530.316,804.670,790.482,812.209,794.594,0.000,0.000,0
1510777530.318,810.564,793.977,814.539,805.424,0.000,0.000,0
1510777530.320,815.705,795.142,817.213,809.879,0.000,0.000,0
1510777530.322,807.891,794.457,817.350,809.193,0.000,0.000,0
1510777530.324,802.202,794.526,819.611,803.093,0.000,0.000,0
1510777530.326,796.856,796.924,818.995,791.098,0.000,0.000,0
1510777530.328,791.715,797.267,821.256,790.756,0.000,0.000,0
1510777530.330,791.510,799.049,822.764,778.418,0.000,0.000,0
1510777530.332,791.373,799.803,823.861,773.963,0.000,0.000,0
1510777530.334,790.893,797.953,826.877,780.338,0.000,0.000,0
1510777530.336,796.582,795.622,827.082,792.606,0.000,0.000,0
1510777530.338,806.589,790.824,824.409,805.149,0.000,0.000,0
1510777530.340,811.798,790.893,822.559,814.745,0.000,0.000,0
1510777530.342,800.900,793.909,824.409,804.944,0.000,0.000,0
1510777530.344,799.323,795.485,825.849,792.675,0.000,0.000,0
1510777530.346,801.585,794.731,825.643,784.244,0.000,0.000,0
1510777530.348,800.900,795.211,826.740,781.503,0.000,0.000,0
1510777530.350,804.053,798.981,825.369,777.802,0.000,0.000,0
1510777530.352,806.657,797.541,825.232,779.104,0.000,0.000,0
1510777530.354,803.573,794.320,826.740,787.329,0.000,0.000,0
1510777530.356,804.601,792.675,825.163,804.464,0.000,0.000,0
1510777530.358,802.202,792.881,827.082,805.081,0.000,0.000,0
1510777530.360,788.631,795.485,829.070,813.237,0.000,0.000,0
1510777530.362,796.170,797.404,827.357,808.028,0.000,0.000,0
1510777530.364,814.128,799.118,825.643,803.230,0.000,0.000,0
1510777530.365,805.629,799.735,828.248,793.703,0.000,0.000,0
1510777530.367,800.763,799.735,829.413,779.447,0.000,0.000,0
1510777530.369,801.996,801.517,830.372,776.362,0.000,0.000,0
1510777530.371,803.984,800.831,832.223,782.325,0.000,0.000,0
1510777530.373,800.420,802.408,831.058,784.450,0.000,0.000,0
1510777530.375,800.557,801.654,831.743,792.332,0.000,0.000,0
1510777530.377,803.916,800.557,833.320,800.694,0.000,0.000,0
1510777530.379,811.798,800.214,832.360,809.125,0.000,0.000,0
1510777530.381,819.817,801.311,831.469,810.358,0.000,0.000,0
1510777530.383,811.935,801.654,832.429,803.367,0.000,0.000,0
1510777530.385,808.234,799.255,828.727,792.812,0.000,0.000,0
1510777530.387,803.299,800.694,828.659,783.490,0.000,0.000,0
1510777530.389,805.012,798.775,828.659,790.070,0.000,0.000,0
1510777530.391,798.227,798.912,830.372,788.220,0.000,0.000,0
1510777530.393,801.174,800.009,834.690,792.058,0.000,0.000,0
1510777530.395,809.879,799.186,832.223,798.638,0.000,0.000,0
1510777530.397,820.777,800.900,830.784,812.963,0.000,0.000,0
1510777530.399,816.801,800.763,829.687,811.935,0.000,0.000,0
1510777530.401,814.128,801.174,832.703,817.281,0.000,0.000,0
1510777530.403,816.664,797.884,834.005,814.334,0.000,0.000,0
1510777530.405,802.271,795.005,836.198,810.427,0.000,0.000,0
1510777530.407,793.497,792.538,838.255,792.332,0.000,0.000,0
1510777530.409,808.439,793.429,837.980,782.736,0.000,0.000,0
1510777530.411,811.112,794.251,835.581,783.765,0.000,0.000,0
1510777530.413,815.362,791.167,835.650,793.634,0.000,0.000,0
1510777530.415,816.596,789.042,837.501,800.283,0.000,0.000,0
1510777530.417,819.337,791.030,838.255,805.698,0.000,0.000,0
1510777530.419,821.325,794.183,837.706,814.677,0.000,0.000,0
1510777530.421,818.172,795.896,838.255,821.188,0.000,0.000,0
1510777530.423,816.253,796.033,835.444,808.782,0.000,0.000,0
1510777530.425,806.040,791.921,835.307,792.469,0.000,0.000,0
1510777530.427,800.283,791.647,840.859,781.297,0.000,0.000,0
1510777530.429,814.197,793.360,842.230,788.220,0.000,0.000,0
1510777530.431,823.244,798.501,841.133,791.784,0.000,0.000,0
1510777530.433,824.067,801.585,842.573,797.541,0.000,0.000,0
1510777530.435,822.147,799.118,847.576,807.068,0.000,0.000,0
1510777530.437,825.300,794.800,845.726,818.309,0.000,0.000,0
1510777530.439,823.381,793.497,840.859,820.503,0.000,0.000,0
1510777530.441,819.474,793.429,842.230,833.320,0.000,0.000,0
1510777530.443,811.318,793.772,842.573,821.805,0.000,0.000,0
1510777530.445,815.773,798.364,841.407,799.598,0.000,0.000,0
1510777530.447,815.088,800.900,840.791,788.357,0.000,0.000,0
1510777530.449,810.633,797.473,837.226,788.425,0.000,0.000,0
1510777530.451,809.742,790.687,835.513,794.183,0.000,0.000,0
1510777530.453,811.387,790.619,834.690,797.336,0.000,0.000,0
1510777530.455,807.685,789.659,836.404,814.265,0.000,0.000,0
1510777530.457,821.942,789.042,837.364,818.172,0.000,0.000,0
1510777530.459,828.590,788.905,837.569,815.499,0.000,0.000,0
1510777530.461,825.643,788.631,836.130,819.749,0.000,0.000,0
1510777530.463,820.091,785.615,833.594,818.172,0.000,0.000,0
1510777530.465,806.794,783.353,832.634,798.295,0.000,0.000,0
1510777530.467,799.186,783.353,830.784,786.369,0.000,0.000,0
1510777530.469,806.931,782.394,830.509,787.123,0.000,0.000,0
1510777530.471,810.153,783.011,831.263,789.042,0.000,0.000,0
1510777530.473,808.713,781.777,833.320,801.174,0.000,0.000,0
1510777530.475,808.782,782.325,835.170,801.380,0.000,0.000,1
1510777530.477,809.536,782.462,833.868,805.012,0.000,0.000,0
1510777530.479,814.334,784.519,832.634,818.857,0.000,0.000,0
1510777530.481,814.677,786.026,830.989,814.197,0.000,0.000,0
1510777530.483,811.524,783.422,831.538,802.476,0.000,0.000,0
1510777530.485,806.520,786.095,832.429,793.909,0.000,0.000,0
1510777530.487,810.221,789.728,831.332,790.070,0.000,0.000,0
1510777530.489,816.184,789.453,831.743,796.376,0.000,0.000,0
1510777530.491,816.870,788.837,832.223,790.619,0.000,0.000,0
1510777530.493,815.362,789.453,832.154,785.821,0.000,0.000,0
1510777530.495,812.757,788.151,834.485,798.158,0.000,0.000,0
1510777530.497,815.362,784.861,835.993,807.754,0.000,0.000,0
1510777530.499,821.325,782.942,837.843,815.568,0.000,0.000,0
1510777530.501,823.792,781.708,837.364,816.184,0.000,0.000,0
1510777530.503,817.624,781.434,838.255,807.891,0.000,0.000,0
1510777530.505,811.798,777.185,838.871,799.255,0.000,0.000,0
1510777530.507,809.947,776.019,839.146,799.940,0.000,0.000,0
1510777530.509,811.729,775.060,838.871,790.756,0.000,0.000,0
1510777530.511,811.524,774.786,837.226,784.176,0.000,0.000,0
1510777530.513,811.729,774.169,837.775,791.510,0.000,0.000,0
1510777530.515,814.745,773.278,840.722,803.230,0.000,0.000,0
1510777530.517,822.422,773.141,843.464,816.116,0.000,0.000,0
1510777530.519,827.699,773.004,839.968,822.353,0.000,0.000,0
1510777530.521,828.453,773.141,842.436,826.397,0.000,0.000,0
1510777530.523,824.067,774.649,847.508,820.845,0.000,0.000,0
1510777530.525,819.749,779.584,850.798,808.097,0.000,0.000,0
1510777530.527,814.814,780.954,851.414,797.678,0.000,0.000,0
1510777530.529,812.552,778.693,855.595,797.884,0.000,0.000,0
1510777530.531,808.988,778.281,855.801,801.311,0.000,0.000,0
1510777530.533,815.019,778.693,855.801,808.165,0.000,0.000,0
1510777530.535,818.378,779.858,857.720,813.032,0.000,0.000,0
1510777530.537,818.926,781.708,858.200,820.708,0.000,0.000,0
1510777530.539,820.777,780.612,858.337,827.288,0.000,0.000,0
1510777530.541,814.951,777.527,858.200,829.755,0.000,0.000,0
1510777530.543,808.165,778.693,856.761,818.309,0.000,0.000,0
1510777530.545,810.221,777.459,855.527,797.747,0.000,0.000,0
1510777530.547,812.826,775.334,854.841,788.974,0.000,0.000,0
1510777530.549,811.044,775.745,854.225,792.675,0.000,0.000,0
1510777530.551,810.358,775.471,852.580,790.687,0.000,0.000,0
1510777530.553,810.427,775.334,854.019,795.211,0.000,0.000,0
1510777530.555,812.141,774.580,854.841,808.028,0.000,0.000,0
1510777530.557,814.882,776.019,853.608,817.350,0.000,0.000,0
1510777530.559,819.269,779.241,853.265,825.300,0.000,0.000,0
1510777530.561,821.462,781.229,852.511,820.023,0.000,0.000,0
1510777530.563,818.995,779.584,851.689,816.390,0.000,0.000,0
1510777530.565,812.620,776.705,852.648,804.190,0.000,0.000,0
1510777530.567,807.548,778.350,852.922,794.046,0.000,0.000,0
1510777530.569,795.828,777.596,855.732,790.619,0.000,0.000,0
1510777530.571,801.996,775.197,858.885,802.956,0.000,0.000,0
1510777530.573,811.524,777.185,857.994,797.953,0.000,0.000,0
1510777530.575,814.197,778.555,859.571,797.267,0.000,0.000,0
1510777530.577,819.886,778.418,861.079,802.202,0.000,0.000,0
1510777530.579,831.880,778.487,863.272,817.966,0.000,0.000,0
1510777530.581,831.949,777.116,865.260,822.627,0.000,0.000,0
1510777530.583,822.353,773.895,864.848,817.350,0.000,0.000,0
1510777530.585,809.467,774.375,862.449,802.065,0.000,0.000,0
1510777530.587,805.492,776.157,862.381,793.909,0.000,0.000,0
1510777530.589,808.302,775.403,862.175,790.893,0.000,0.000,0
1510777530.591,813.100,775.128,861.490,800.283,0.000,0.000,0
1510777530.593,815.636,778.487,859.365,799.529,0.000,0.000,0
1510777530.595,812.757,778.967,855.938,796.376,0.000,0.000,0
1510777530.597,813.785,777.802,858.268,803.641,0.000,0.000,0
1510777530.599,811.455,777.802,861.284,814.402,0.000,0.000,0
1510777530.601,812.826,776.431,861.490,814.265,0.000,0.000,0
1510777530.603,816.870,777.459,857.309,807.068,0.000,0.000,0
1510777530.605,815.225,778.213,857.103,808.097,0.000,0.000,0
1510777530.607,810.016,783.285,861.147,790.550,0.000,0.000,0
1510777530.609,811.249,785.821,863.135,785.821,0.000,0.000,0
1510777530.611,814.128,786.575,866.562,789.591,0.000,0.000,0
1510777530.613,816.733,785.272,866.973,796.993,0.000,0.000,0
1510777530.615,816.116,783.559,867.110,799.118,0.000,0.000,0
1510777530.617,818.789,781.914,862.518,807.068,0.000,0.000,0
1510777530.619,823.450,782.325,862.381,821.393,0.000,0.000,0
1510777530.621,825.849,781.023,865.602,821.119,0.000,0.000,0
1510777530.623,826.397,781.023,867.453,823.518,0.000,0.000,0
1510777530.625,813.237,780.680,868.344,809.262,0.000,0.000,0
1510777530.627,807.548,781.229,866.356,800.283,0.000,0.000,0
1510777530.629,812.552,780.749,865.534,792.127,0.000,0.000,0
1510777530.631,811.249,783.011,865.260,794.457,0.000,0.000,0
1510777530.633,817.007,785.958,864.094,801.037,0.000,0.000,0
1510777530.635,820.845,784.107,866.082,810.221,0.000,0.000,0
1510777530.637,821.736,780.132,866.699,818.926,0.000,0.000,0
1510777530.639,827.288,780.749,868.138,835.239,0.000,0.000,0
1510777530.641,825.095,784.039,870.332,834.348,0.000,0.000,0
1510777530.643,820.845,787.534,871.428,823.792,0.000,0.000,0
1510777530.645,813.991,788.083,869.646,813.717,0.000,0.000,0
1510777530.647,808.028,788.425,865.877,804.807,0.000,0.000,0
1510777530.649,810.975,788.288,867.384,798.021,0.000,0.000,0
1510777530.651,812.757,787.946,866.288,798.844,0.000,0.000,0
1510777530.653,817.829,789.865,866.356,808.988,0.000,0.000,0
1510777530.655,817.692,788.288,866.493,817.418,0.000,0.000,0
1510777530.657,821.393,790.756,867.864,822.147,0.000,0.000,0
1510777530.659,826.054,791.304,869.235,825.163,0.000,0.000,0
1510777530.661,835.033,789.385,868.070,832.360,0.000,0.000,0
1510777530.663,825.437,787.877,869.646,816.321,0.000,0.000,0
1510777530.665,812.483,789.111,869.989,801.517,0.000,0.000,0
1510777530.667,808.234,791.373,868.344,789.316,0.000,0.000,0
1510777530.669,809.536,791.921,866.425,787.260,0.000,0.000,0
1510777530.671,813.991,788.151,865.123,786.986,0.000,0.000,0
1510777530.673,818.309,785.341,861.696,795.896,0.000,0.000,0
1510777530.675,818.378,783.833,859.913,798.090,0.000,0.000,0
1510777530.677,821.873,782.942,862.175,807.343,0.000,0.000,0
1510777530.679,828.590,784.176,862.518,817.966,0.000,0.000,0
1510777530.681,824.821,784.861,864.094,817.829,0.000,0.000,0
1510777530.683,817.555,783.628,863.341,808.919,0.000,0.000,0
1510777530.685,810.564,782.599,858.885,801.996,0.000,0.000,0
1510777530.687,808.988,782.736,860.325,800.214,0.000,0.000,0
1510777530.689,811.866,783.422,862.587,789.659,0.000,0.000,0
1510777530.691,810.907,785.958,867.110,785.684,0.000,0.000,0
1510777530.693,813.169,791.852,866.288,788.837,0.000,0.000,0
1510777530.695,821.119,794.114,865.671,802.476,0.000,0.000,0
1510777530.697,828.590,796.170,867.590,817.966,0.000,0.000,0
1510777530.699,830.647,797.953,869.783,831.126,0.000,0.000,0
1510777530.701,828.659,798.021,869.304,826.877,0.000,0.000,0
1510777530.703,818.583,794.388,868.275,818.652,0.000,0.000,0
1510777530.705,812.072,793.360,869.783,808.576,0.000,0.000,0
1510777530.707,812.415,793.155,872.799,803.916,0.000,0.000,0
1510777530.709,820.365,795.554,874.650,797.747,0.000,0.000,0
1510777530.711,819.680,796.650,872.251,794.663,0.000,0.000,0
1510777530.713,818.446,795.485,869.920,801.517,0.000,0.000,0
1510777530.715,817.007,793.634,869.989,807.068,0.000,0.000,0
1510777530.717,819.406,792.606,868.892,815.362,0.000,0.000,0
1510777530.719,819.886,792.401,869.441,824.546,0.000,0.000,0
1510777530.721,822.559,790.824,870.949,833.662,0.000,0.000,0
1510777530.723,823.381,791.990,870.743,819.063,0.000,0.000,0
1510777530.725,818.652,795.691,872.251,799.735,0.000,0.000,0
1510777530.727,808.234,798.569,871.771,791.441,0.000,0.000,0
1510777530.729,808.782,798.569,873.005,794.251,0.000,0.000,0
1510777530.731,803.710,798.775,875.198,801.105,0.000,0.000,0
1510777530.733,816.116,794.046,875.678,804.464,0.000,0.000,0
1510777530.735,822.970,790.687,875.746,810.838,0.000,0.000,0
1510777530.737,823.176,794.526,875.541,819.063,0.000,0.000,0
1510777530.739,828.659,794.800,875.472,832.086,0.000,0.000,0
1510777530.741,825.986,793.977,875.061,832.360,0.000,0.000,0
1510777530.743,823.998,795.828,869.372,821.462,0.000,0.000,0
1510777530.745,820.845,797.610,867.247,807.206,0.000,0.000,0
1510777530.747,816.390,798.981,866.356,793.840,0.000,0.000,0
1510777530.749,814.060,798.021,868.618,788.151,0.000,0.000,0
1510777530.751,816.596,798.912,868.755,788.905,0.000,0.000,0
1510777530.753,821.805,798.432,869.509,794.731,0.000,0.000,0
1510777530.755,825.712,799.803,874.376,818.035,0.000,0.000,0
1510777530.757,826.191,802.750,876.226,817.281,0.000,0.000,0
1510777530.759,828.522,802.202,876.637,818.241,0.000,0.000,0
1510777530.761,827.768,798.981,880.339,822.353,0.000,0.000,0
1510777530.763,827.631,798.090,882.121,822.147,0.000,0.000,0
1510777530.765,821.668,798.775,879.653,806.109,0.000,0.000,0
1510777530.767,821.256,798.706,878.899,794.183,0.000,0.000,0
1510777530.769,825.232,802.134,878.145,792.469,0.000,0.000,0
1510777530.771,820.777,800.009,876.637,790.756,0.000,0.000,0
1510777530.773,812.278,798.227,876.637,802.956,0.000,0.000,0
1510777530.775,821.188,796.033,875.883,798.295,0.000,0.000,0
1510777530.777,826.945,798.638,875.541,797.130,0.000,0.000,0
1510777530.779,828.864,798.090,873.553,808.371,0.000,0.000,0
1510777530.781,825.575,798.021,871.428,812.483,0.000,0.000,0
1510777530.783,823.998,798.090,873.073,812.483,0.000,0.000,0
1510777530.785,826.260,800.900,873.896,805.766,0.000,0.000,0
1510777530.787,823.244,800.831,869.509,794.114,0.000,0.000,0
1510777530.789,816.801,798.775,868.207,788.768,0.000,0.000,0
1510777530.791,810.633,795.211,865.397,783.765,0.000,0.000,0
1510777530.793,813.580,792.195,864.026,792.469,0.000,0.000,0
1510777530.795,819.063,794.114,868.344,801.585,0.000,0.000,0
1510777530.797,825.506,795.279,868.550,808.851,0.000,0.000,0
1510777530.799,827.357,798.432,868.413,817.350,0.000,0.000,0
1510777530.801,821.942,800.489,867.316,820.503,0.000,0.000,0
1510777530.803,820.365,800.763,867.659,819.200,0.000,0.000,0
1510777530.805,816.047,799.872,864.369,809.947,0.000,0.000,0
1510777530.807,812.483,797.747,863.683,804.327,0.000,0.000,0
1510777530.809,806.794,796.787,866.356,792.058,0.000,0.000,0
1510777530.811,802.271,794.457,867.384,789.522,0.000,0.000,0
1510777530.813,800.283,794.320,867.316,795.279,0.000,0.000,0
1510777530.815,806.726,796.924,863.066,803.504,0.000,0.000,0
1510777530.817,813.306,799.735,860.325,814.402,0.000,0.000,0
1510777530.819,817.761,797.747,860.805,821.668,0.000,0.000,0
1510777530.821,819.749,795.828,858.131,828.864,0.000,0.000,0
1510777530.823,819.611,795.965,860.462,816.527,0.000,0.000,0
1510777530.825,812.826,793.977,860.256,806.931,0.000,0.000,0
1510777530.827,802.888,795.074,858.543,788.837,0.000,0.000,0
1510777530.829,803.025,793.292,856.829,783.353,0.000,0.000,0
1510777530.831,807.480,794.251,856.349,785.135,0.000,0.000,0
1510777530.833,808.782,795.074,858.337,792.332,0.000,0.000,0
1510777530.835,808.234,793.909,863.957,795.896,0.000,0.000,0
1510777530.837,810.290,792.538,866.562,803.641,0.000,0.000,0
1510777530.839,815.293,790.961,865.191,825.643,0.000,0.000,0
1510777530.841,814.539,793.292,865.465,822.764,0.000,0.000,0
1510777530.843,799.735,796.924,864.300,807.480,0.000,0.000,0
1510777530.845,805.286,796.376,860.942,797.884,0.000,0.000,0
1510777530.847,808.302,797.953,859.571,794.526,0.000,0.000,0
1510777530.849,804.053,796.993,856.829,791.784,0.000,0.000,0
1510777530.851,803.984,796.102,855.527,791.715,0.000,0.000,0
1510777530.853,806.452,795.005,856.007,798.227,0.000,0.000,0
1510777530.855,812.894,793.429,856.144,805.766,0.000,0.000,0
1510777530.857,816.321,795.622,852.717,815.088,0.000,0.000,0
1510777530.859,818.652,797.062,852.443,821.393,0.000,0.000,0
1510777530.861,822.216,796.924,852.443,825.369,0.000,0.000,0
1510777530.863,821.668,798.227,851.894,814.814,0.000,0.000,0
1510777530.865,811.729,800.009,850.592,800.283,0.000,0.000,0
1510777530.867,801.242,798.021,848.124,792.058,0.000,0.000,0
1510777530.869,798.090,795.554,847.370,786.301,0.000,0.000,0
1510777530.871,798.364,795.828,848.741,791.098,0.000,0.000,0
1510777530.873,797.062,793.977,848.262,794.526,0.000,0.000,0
1510777530.875,799.049,794.868,848.741,797.267,0.000,0.000,0
1510777530.877,807.068,795.417,850.318,811.866,0.000,0.000,0
1510777530.879,813.785,793.634,850.523,826.945,0.000,0.000,0
1510777530.881,814.677,794.457,848.741,830.852,0.000,0.000,0
1510777530.883,803.641,796.239,848.056,817.418,0.000,0.000,0
1510777530.885,798.158,795.691,847.370,804.121,0.000,0.000,0
1510777530.887,806.726,795.691,844.492,798.981,0.000,0.000,0
1510777530.889,809.262,797.610,843.943,792.743,0.000,0.000,0
1510777530.891,806.383,796.445,843.875,796.445,0.000,0.000,0
1510777530.893,810.838,797.062,847.096,797.404,0.000,0.000,0
1510777530.895,816.047,797.884,849.290,803.504,0.000,0.000,0
1510777530.897,820.914,799.392,849.084,816.459,0.000,0.000,0
1510777530.899,824.958,799.940,850.112,825.780,0.000,0.000,0
1510777530.901,825.026,798.775,847.850,829.618,0.000,0.000,0
1510777530.903,815.499,798.912,842.573,819.611,0.000,0.000,0
1510777530.905,802.271,799.049,839.694,803.367,0.000,0.000,0
1510777530.907,796.102,798.432,840.448,800.077,0.000,0.000,0
1510777530.909,796.033,797.062,841.682,793.909,0.000,0.000,0
1510777530.911,798.364,795.759,841.819,792.401,0.000,0.000,0
1510777530.913,804.670,796.924,840.448,798.364,0.000,0.000,0
1510777530.915,805.835,797.404,840.859,804.944,0.000,0.000,0
1510777530.917,816.390,793.566,843.395,813.923,0.000,0.000,0
1510777530.919,820.434,789.111,844.218,822.764,0.000,0.000,0
1510777530.921,817.075,789.728,842.024,822.422,0.000,0.000,0
1510777530.923,812.003,794.251,842.230,816.596,0.000,0.000,0
1510777530.925,806.040,793.018,844.012,804.121,0.000,0.000,0
1510777530.927,797.473,794.457,845.177,786.986,0.000,0.000,0
1510777530.929,801.928,795.005,846.411,788.220,0.000,0.000,0
1510777530.931,800.900,797.815,843.875,790.070,0.000,0.000,0
1510777530.933,797.747,798.090,843.875,790.550,0.000,0.000,0
1510777530.935,808.645,795.142,847.165,802.339,0.000,0.000,0
1510777530.937,816.253,794.114,847.850,814.677,0.000,0.000,0
1510777530.939,816.184,794.388,846.411,827.768,0.000,0.000,0
1510777530.941,811.387,795.348,844.834,820.845,0.000,0.000,0
1510777530.943,810.290,796.102,841.819,811.318,0.000,0.000,0
1510777530.945,813.717,795.896,840.791,802.888,0.000,0.000,0
1510777530.947,811.455,795.622,839.831,791.715,0.000,0.000,0
1510777530.949,807.617,795.142,840.311,787.671,0.000,0.000,0
1510777530.951,803.847,796.239,837.980,788.631,0.000,0.000,0
1510777530.953,801.654,796.856,839.009,792.469,0.000,0.000,0
1510777530.955,806.452,797.336,838.186,803.436,0.000,0.000,0
1510777530.957,810.358,796.993,837.501,817.966,0.000,0.000,0
1510777530.959,809.193,796.582,835.650,813.785,0.000,0.000,0
1510777530.961,808.234,798.227,832.771,806.726,0.000,0.000,0
1510777530.963,808.371,797.336,832.017,807.754,0.000,0.000,0
1510777530.965,805.218,793.086,830.715,798.158,0.000,0.000,0
1510777530.967,797.267,792.401,829.070,783.422,0.000,0.000,0
1510777530.969,796.993,793.155,833.251,787.877,0.000,0.000,0
1510777530.971,801.105,795.074,834.348,800.146,0.000,0.000,0
1510777530.973,801.105,798.775,834.005,797.884,0.000,0.000,0
1510777530.975,810.153,801.722,835.856,795.417,0.000,0.000,0
1510777530.977,815.773,802.750,836.198,796.993,0.000,0.000,0
1510777530.979,821.119,802.682,834.896,812.894,0.000,0.000,0
1510777530.980,813.100,802.271,833.594,816.390,0.000,0.000,0
1510777530.982,809.536,799.255,833.388,811.318,0.000,0.000,0
1510777530.984,807.068,798.295,833.936,802.134,0.000,0.000,0
1510777530.986,803.573,802.134,835.650,798.638,0.000,0.000,0
1510777530.988,791.990,801.448,835.993,790.550,0.000,0.000,0
1510777530.990,790.070,796.856,830.852,788.425,0.000,0.000,0
1510777530.992,790.961,794.114,829.002,784.793,0.000,0.000,0
1510777530.994,797.953,792.743,831.195,793.360,0.000,0.000,0
1510777530.996,800.626,796.308,831.332,804.190,0.000,0.000,0
1510777530.998,808.576,796.924,832.703,816.733,0.000,0.000,0
1510777531.000,812.141,796.445,834.622,817.966,0.000,0.000,0
1510777531.002,809.604,793.497,835.033,814.402,0.000,0.000,0
1510777531.004,806.246,790.550,837.432,810.084,0.000,0.000,0
1510777531.006,801.380,791.236,838.117,797.678,0.000,0.000,0
1510777531.008,798.844,794.114,839.488,785.410,0.000,0.000,0
1510777531.010,801.380,795.622,840.791,796.170,0.000,0.000,0
1510777531.012,805.835,798.981,838.049,801.037,0.000,0.000,0
