timestamps,TP9,FP1,FP2,TP10,n/a,n/a,Marker0
1510777822.958,839.831,788.562,881.093,844.972,0.000,0.000,0
1510777822.960,835.376,789.316,880.956,839.214,0.000,0.000,0
1510777822.962,839.831,788.974,881.367,845.931,0.000,0.000,0
1510777822.964,843.875,787.603,879.996,838.255,0.000,0.000,0
1510777822.966,844.903,787.740,880.476,842.504,0.000,0.000,0
1510777822.968,843.532,788.905,878.968,845.451,0.000,0.000,0
1510777822.970,840.585,787.740,879.859,850.660,0.000,0.000,0
1510777822.972,839.283,787.534,876.226,851.414,0.000,0.000,0
1510777822.974,838.460,786.301,875.952,846.617,0.000,0.000,0
1510777822.976,833.045,786.369,875.198,841.750,0.000,0.000,0
1510777822.978,828.453,785.410,875.541,836.061,0.000,0.000,0
1510777822.980,838.392,785.547,874.581,837.912,0.000,0.000,0
1510777822.982,845.177,783.559,875.541,838.529,0.000,0.000,0
1510777822.984,841.065,781.366,878.145,838.666,0.000,0.000,0
1510777822.986,838.529,785.478,877.049,837.158,0.000,0.000,0
1510777822.988,830.509,786.712,873.416,830.509,0.000,0.000,0
1510777822.990,829.070,787.260,873.005,831.195,0.000,0.000,0
1510777822.992,831.880,784.930,877.391,843.943,0.000,0.000,0
1510777822.994,825.986,781.983,877.391,841.407,0.000,0.000,0
1510777822.996,826.603,782.188,876.158,834.005,0.000,0.000,0
1510777822.998,824.615,783.765,876.432,829.276,0.000,0.000,0
1510777823.000,825.986,786.780,876.295,827.562,0.000,0.000,0
1510777823.002,823.176,786.164,875.883,831.332,0.000,0.000,0
1510777823.004,825.849,784.861,874.581,838.323,0.000,0.000,0
1510777823.006,827.151,783.902,872.731,833.936,0.000,0.000,0
1510777823.008,829.413,784.313,874.239,836.335,0.000,0.000,0
1510777823.010,836.678,784.656,871.223,842.641,0.000,0.000,0
1510777823.012,839.077,788.220,869.783,847.713,0.000,0.000,0
1510777823.014,831.263,788.562,867.590,843.395,0.000,0.000,0
1510777823.016,825.026,787.329,869.920,834.553,0.000,0.000,0
1510777823.018,817.966,784.519,869.783,835.239,0.000,0.000,0
1510777823.020,823.655,785.135,870.537,840.791,0.000,0.000,0
1510777823.022,822.627,786.712,869.098,839.351,0.000,0.000,0
1510777823.024,821.531,789.453,866.219,841.202,0.000,0.000,0
1510777823.026,818.926,788.357,867.933,832.429,0.000,0.000,0
1510777823.028,822.079,781.708,872.182,834.759,0.000,0.000,0
1510777823.030,840.379,788.014,871.977,841.407,0.000,0.000,0
1510777823.032,845.109,787.877,867.453,834.759,0.000,0.000,0
1510777823.034,834.074,783.833,868.687,830.509,0.000,0.000,0
1510777823.036,824.067,783.490,870.606,825.643,0.000,0.000,0
1510777823.038,821.873,783.559,871.497,828.179,0.000,0.000,0
1510777823.040,826.671,783.902,872.936,831.606,0.000,0.000,0
1510777823.042,830.509,781.914,874.718,833.799,0.000,0.000,0
1510777823.044,833.799,780.543,875.198,835.513,0.000,0.000,0
1510777823.046,826.808,779.721,875.267,828.933,0.000,0.000,0
1510777823.048,825.506,784.381,872.114,831.195,0.000,0.000,0
1510777823.050,824.546,788.425,873.416,834.142,0.000,0.000,0
1510777823.052,832.223,789.522,874.444,835.444,0.000,0.000,0
1510777823.054,836.130,784.039,877.117,834.759,0.000,0.000,0
1510777823.056,832.703,781.983,877.186,840.037,0.000,0.000,0
1510777823.058,828.111,780.132,874.033,843.669,0.000,0.000,0
1510777823.060,832.154,782.257,872.936,842.984,0.000,0.000,0
1510777823.062,841.682,784.244,877.666,838.392,0.000,0.000,0
1510777823.064,838.529,785.410,881.298,831.606,0.000,0.000,0
1510777823.066,827.768,788.014,880.407,823.381,0.000,0.000,0
1510777823.068,821.668,785.547,880.750,824.615,0.000,0.000,0
1510777823.070,824.204,789.042,883.012,833.251,0.000,0.000,0
1510777823.072,826.603,788.014,881.641,834.485,0.000,0.000,0
1510777823.074,826.123,788.083,882.943,834.348,0.000,0.000,0
1510777823.076,827.562,789.728,884.177,837.158,0.000,0.000,0
1510777823.078,825.506,788.631,883.492,829.961,0.000,0.000,0
1510777823.080,824.821,786.506,883.217,824.683,0.000,0.000,0
1510777823.082,828.248,786.506,882.943,833.320,0.000,0.000,0
1510777823.084,831.675,786.849,883.971,843.806,0.000,0.000,0
1510777823.086,831.469,792.332,881.915,838.186,0.000,0.000,0
1510777823.088,825.506,786.917,883.834,834.279,0.000,0.000,0
1510777823.090,826.534,780.406,886.096,839.694,0.000,0.000,0
1510777823.092,830.578,782.531,882.395,846.274,0.000,0.000,0
1510777823.094,829.755,783.765,883.423,853.950,0.000,0.000,0
1510777823.096,838.186,786.506,884.451,852.374,0.000,0.000,0
1510777823.098,844.149,788.562,885.274,843.395,0.000,0.000,0
1510777823.100,842.710,789.591,885.548,843.327,0.000,0.000,0
1510777823.102,839.077,785.889,886.781,849.221,0.000,0.000,0
1510777823.104,834.828,786.438,884.725,850.181,0.000,0.000,0
1510777823.106,838.186,789.385,879.311,843.738,0.000,0.000,0
1510777823.108,848.124,785.478,877.254,845.040,0.000,0.000,0
1510777823.110,845.863,782.531,878.419,846.617,0.000,0.000,0
1510777823.112,841.202,781.983,880.133,851.003,0.000,0.000,0
1510777823.114,836.335,782.120,879.653,841.476,0.000,0.000,0
1510777823.116,837.501,782.394,880.133,842.161,0.000,0.000,0
1510777823.118,836.678,776.773,879.996,846.891,0.000,0.000,0
1510777823.120,840.448,774.649,880.270,852.922,0.000,0.000,0
1510777823.122,834.690,775.677,879.448,841.682,0.000,0.000,0
1510777823.124,830.441,778.967,879.653,835.856,0.000,0.000,0
1510777823.126,834.416,779.172,880.133,841.613,0.000,0.000,0
1510777823.128,836.335,775.540,881.504,845.588,0.000,0.000,0
1510777823.130,838.255,777.733,880.407,848.399,0.000,0.000,0
1510777823.132,836.335,781.366,878.625,840.379,0.000,0.000,0
1510777823.134,837.226,784.793,874.307,841.065,0.000,0.000,0
1510777823.136,840.242,786.849,875.815,842.093,0.000,0.000,0
1510777823.138,836.815,783.628,876.637,837.158,0.000,0.000,0
1510777823.140,834.348,780.886,875.404,833.594,0.000,0.000,0
1510777823.142,830.852,779.789,873.416,833.799,0.000,0.000,0
1510777823.144,836.404,778.076,874.718,836.130,0.000,0.000,0
1510777823.146,842.161,780.132,876.363,835.856,0.000,0.000,0
1510777823.148,837.295,780.132,878.625,838.529,0.000,0.000,0
1510777823.150,834.005,782.051,876.295,840.448,0.000,0.000,0
1510777823.152,844.149,785.067,874.444,849.358,0.000,0.000,0
1510777823.154,839.557,779.995,877.391,848.741,0.000,0.000,0
1510777823.156,842.024,777.048,876.912,846.411,0.000,0.000,0
1510777823.158,838.392,773.758,877.323,841.750,0.000,0.000,0
1510777823.160,839.283,776.088,878.008,843.738,0.000,0.000,0
1510777823.162,847.096,776.911,877.940,844.766,0.000,0.000,0
1510777823.164,837.501,775.608,875.404,833.594,0.000,0.000,0
1510777823.166,832.086,777.596,873.210,824.546,0.000,0.000,0
1510777823.168,836.678,775.608,874.101,824.135,0.000,0.000,0
1510777823.170,839.351,772.592,873.347,835.239,0.000,0.000,0
1510777823.172,838.597,776.431,870.057,842.847,0.000,0.000,0
1510777823.174,837.295,775.471,870.126,840.791,0.000,0.000,0
1510777823.176,829.961,774.854,869.441,833.183,0.000,0.000,0
1510777823.178,832.908,776.431,871.086,832.634,0.000,0.000,0
1510777823.180,834.622,778.967,870.743,834.965,0.000,0.000,0
1510777823.182,836.473,778.693,867.864,826.534,0.000,0.000,0
1510777823.184,836.610,778.418,865.945,826.534,0.000,0.000,0
1510777823.186,838.186,773.963,866.151,834.279,0.000,0.000,0
1510777823.188,838.666,772.729,867.864,831.538,0.000,0.000,0
1510777823.190,836.678,777.322,870.537,836.678,0.000,0.000,0
1510777823.192,835.513,772.661,872.182,844.218,0.000,0.000,0
1510777823.194,829.276,769.440,870.400,840.722,0.000,0.000,0
1510777823.196,830.030,768.617,871.497,838.803,0.000,0.000,0
1510777823.198,824.409,767.589,868.892,827.699,0.000,0.000,0
1510777823.200,821.462,768.411,867.521,829.824,0.000,0.000,0
1510777823.202,819.611,765.190,864.026,824.272,0.000,0.000,0
1510777823.204,824.204,759.501,864.437,827.151,0.000,0.000,0
1510777823.206,826.877,760.735,867.864,833.251,0.000,0.000,0
1510777823.208,832.497,761.832,869.441,835.856,0.000,0.000,0
1510777823.210,837.295,765.396,871.291,838.323,0.000,0.000,0
1510777823.212,837.706,771.290,870.263,842.436,0.000,0.000,0
1510777823.214,826.877,773.209,869.646,834.622,0.000,0.000,0
1510777823.216,821.325,773.346,869.304,827.631,0.000,0.000,0
1510777823.218,821.256,774.923,866.493,823.450,0.000,0.000,0
1510777823.220,827.082,772.867,868.344,828.111,0.000,0.000,0
1510777823.222,827.494,774.580,868.275,826.740,0.000,0.000,0
1510777823.224,822.970,773.758,869.578,822.627,0.000,0.000,0
1510777823.226,818.720,771.153,871.017,823.518,0.000,0.000,0
1510777823.228,821.599,766.766,870.263,827.973,0.000,0.000,0
1510777823.230,823.861,767.383,866.973,824.821,0.000,0.000,0
1510777823.232,836.130,768.960,865.739,830.441,0.000,0.000,0
1510777823.234,833.799,768.480,865.808,825.712,0.000,0.000,0
1510777823.236,833.045,772.592,864.848,828.316,0.000,0.000,0
1510777823.238,823.998,772.455,862.998,828.111,0.000,0.000,0
1510777823.240,819.886,773.483,862.655,820.228,0.000,0.000,0
1510777823.242,821.462,773.004,861.490,823.039,0.000,0.000,0
1510777823.244,827.151,770.262,862.107,829.139,0.000,0.000,0
1510777823.246,828.111,768.206,865.397,834.896,0.000,0.000,0
1510777823.248,822.696,764.779,867.042,827.699,0.000,0.000,0
1510777823.250,830.167,768.480,865.397,829.550,0.000,0.000,0
1510777823.252,827.905,766.835,864.848,833.594,0.000,0.000,0
1510777823.254,826.054,761.352,865.397,833.525,0.000,0.000,0
1510777823.256,821.462,759.364,864.437,827.768,0.000,0.000,0
1510777823.258,828.111,762.243,862.792,824.478,0.000,0.000,0
1510777823.260,828.864,761.763,864.300,824.958,0.000,0.000,0
1510777823.262,829.618,766.287,863.341,824.752,0.000,0.000,0
1510777823.264,824.409,767.246,861.490,815.088,0.000,0.000,0
1510777823.266,818.857,763.751,863.135,815.636,0.000,0.000,0
1510777823.268,812.894,764.025,862.038,822.010,0.000,0.000,0
1510777823.270,822.216,764.368,862.381,832.497,0.000,0.000,0
1510777823.272,829.481,762.723,863.341,834.690,0.000,0.000,0
1510777823.274,832.840,762.380,864.574,832.292,0.000,0.000,0
1510777823.276,827.973,759.638,862.175,826.671,0.000,0.000,0
1510777823.278,825.506,755.457,862.587,820.982,0.000,0.000,0
1510777823.280,824.409,758.473,858.406,808.439,0.000,0.000,0
1510777823.282,816.664,761.832,855.801,808.508,0.000,0.000,0
1510777823.284,821.393,766.972,860.667,816.253,0.000,0.000,0
1510777823.286,825.986,761.557,863.203,827.494,0.000,0.000,0
1510777823.288,820.571,760.324,861.833,829.824,0.000,0.000,0
1510777823.290,820.365,762.585,858.748,825.232,0.000,0.000,0
1510777823.292,820.023,759.570,855.938,823.998,0.000,0.000,0
1510777823.294,820.228,761.352,855.253,824.958,0.000,0.000,0
1510777823.296,821.599,761.694,857.377,828.111,0.000,0.000,0
1510777823.298,816.116,761.489,857.926,820.091,0.000,0.000,0
1510777823.300,811.455,759.227,859.982,817.829,0.000,0.000,0
1510777823.302,814.471,761.283,855.047,816.253,0.000,0.000,0
1510777823.304,815.499,761.215,852.785,815.499,0.000,0.000,0
1510777823.306,810.496,756.348,855.870,808.782,0.000,0.000,0
1510777823.308,819.337,753.470,857.789,815.979,0.000,0.000,0
1510777823.310,824.546,755.115,857.994,828.248,0.000,0.000,0
1510777823.312,828.111,757.719,857.994,826.397,0.000,0.000,0
1510777823.314,827.836,761.215,859.502,825.849,0.000,0.000,0
1510777823.316,815.636,759.912,861.147,820.297,0.000,0.000,0
1510777823.318,816.390,758.473,861.696,817.075,0.000,0.000,0
1510777823.320,821.393,757.856,861.558,820.982,0.000,0.000,0
1510777823.322,823.724,761.489,858.680,820.503,0.000,0.000,0
1510777823.324,826.191,761.009,856.966,826.191,0.000,0.000,0
1510777823.326,831.606,762.585,857.515,824.546,0.000,0.000,0
1510777823.328,833.320,764.093,855.458,821.119,0.000,0.000,0
1510777823.330,832.086,761.420,855.938,822.764,0.000,0.000,0
1510777823.332,839.077,762.928,857.240,835.102,0.000,0.000,0
1510777823.334,834.348,760.940,857.926,836.404,0.000,0.000,0
1510777823.336,836.130,761.969,857.515,831.606,0.000,0.000,0
1510777823.338,828.796,764.573,860.942,822.696,0.000,0.000,0
1510777823.340,822.422,756.760,865.808,820.297,0.000,0.000,0
1510777823.342,818.720,754.224,866.151,819.200,0.000,0.000,0
1510777823.344,820.091,755.526,863.478,823.655,0.000,0.000,0
1510777823.346,821.599,759.158,864.232,829.618,0.000,0.000,0
1510777823.348,822.147,760.118,864.437,824.958,0.000,0.000,0
1510777823.350,825.437,759.570,864.026,830.989,0.000,0.000,0
1510777823.352,826.534,756.074,864.985,838.871,0.000,0.000,0
1510777823.354,824.135,755.183,864.985,842.641,0.000,0.000,0
1510777823.356,821.325,752.373,862.587,831.675,0.000,0.000,0
1510777823.358,817.829,750.865,862.244,826.603,0.000,0.000,0
1510777823.360,814.471,753.538,861.010,826.054,0.000,0.000,0
1510777823.362,818.446,755.937,860.942,828.111,0.000,0.000,0
1510777823.364,814.128,754.977,858.611,823.313,0.000,0.000,0
1510777823.366,812.415,753.881,857.377,812.757,0.000,0.000,0
1510777823.368,817.075,755.046,859.571,814.402,0.000,0.000,0
1510777823.370,819.269,757.171,859.571,823.039,0.000,0.000,0
1510777823.372,817.418,754.224,860.393,829.481,0.000,0.000,0
1510777823.374,817.144,754.361,860.462,830.509,0.000,0.000,0
1510777823.376,815.019,754.635,860.462,821.805,0.000,0.000,0
1510777823.378,821.873,753.949,861.833,822.901,0.000,0.000,0
1510777823.380,818.583,752.099,860.256,816.253,0.000,0.000,0
1510777823.382,813.237,751.825,856.966,816.253,0.000,0.000,0
1510777823.384,818.446,756.897,854.567,816.801,0.000,0.000,0
1510777823.386,825.026,759.707,854.362,825.232,0.000,0.000,0
1510777823.388,826.123,761.489,853.402,830.235,0.000,0.000,0
1510777823.390,823.244,763.134,853.196,827.014,0.000,0.000,0
1510777823.392,824.889,759.981,856.007,834.759,0.000,0.000,0
1510777823.394,827.014,758.816,856.555,836.267,0.000,0.000,0
1510777823.396,833.114,762.311,857.857,836.267,0.000,0.000,0
1510777823.398,837.295,767.657,856.555,826.877,0.000,0.000,0
1510777823.400,823.313,762.860,854.979,817.213,0.000,0.000,0
1510777823.402,811.661,757.239,854.088,817.075,0.000,0.000,0
1510777823.404,812.894,756.074,853.128,822.696,0.000,0.000,0
1510777823.406,816.184,753.264,854.841,819.749,0.000,0.000,0
1510777823.408,820.982,758.610,853.882,819.269,0.000,0.000,0
1510777823.410,824.341,762.860,854.362,825.232,0.000,0.000,0
1510777823.412,822.970,762.860,854.499,824.683,0.000,0.000,0
1510777823.414,814.951,762.174,856.144,818.720,0.000,0.000,0
1510777823.416,814.334,761.969,855.664,814.334,0.000,0.000,0
1510777823.418,816.184,763.408,855.184,818.583,0.000,0.000,0
1510777823.420,816.321,760.940,852.511,814.334,0.000,0.000,0
1510777823.422,815.910,760.940,851.689,811.318,0.000,0.000,0
1510777823.424,812.552,761.009,849.701,813.374,0.000,0.000,0
1510777823.426,817.487,762.243,849.358,820.091,0.000,0.000,0
1510777823.428,824.067,762.928,851.689,831.400,0.000,0.000,0
1510777823.430,824.272,761.215,851.620,828.933,0.000,0.000,0
1510777823.432,821.805,762.448,847.165,827.562,0.000,0.000,0
1510777823.434,830.098,770.742,842.847,827.219,0.000,0.000,0
1510777823.436,837.501,766.081,847.850,831.675,0.000,0.000,0
1510777823.438,828.864,763.134,848.673,831.743,0.000,0.000,0
1510777823.439,825.986,762.174,848.810,830.304,0.000,0.000,0
1510777823.441,823.998,760.598,848.124,824.752,0.000,0.000,0
1510777823.443,824.478,764.984,848.604,823.998,0.000,0.000,0
1510777823.445,826.534,766.287,847.919,827.357,0.000,0.000,0
1510777823.447,826.740,768.206,844.834,831.332,0.000,0.000,0
1510777823.449,828.316,770.673,846.068,833.251,0.000,0.000,0
1510777823.451,822.079,766.081,845.177,830.647,0.000,0.000,0
1510777823.453,822.696,762.174,848.056,834.896,0.000,0.000,0
1510777823.455,825.712,760.461,846.342,831.195,0.000,0.000,0
1510777823.457,827.494,762.585,847.302,824.067,0.000,0.000,0
1510777823.459,826.603,766.698,851.414,826.740,0.000,0.000,0
1510777823.461,818.446,760.324,851.963,823.039,0.000,0.000,0
1510777823.463,819.132,759.227,847.028,820.777,0.000,0.000,0
1510777823.465,817.898,759.021,847.508,824.615,0.000,0.000,0
1510777823.467,823.039,762.174,846.822,827.014,0.000,0.000,0
1510777823.469,825.026,764.230,849.358,831.812,0.000,0.000,0
1510777823.471,823.792,766.835,852.168,838.597,0.000,0.000,0
1510777823.473,824.341,765.327,853.950,843.190,0.000,0.000,0
1510777823.475,824.272,768.686,853.608,842.161,0.000,0.000,0
1510777823.477,821.051,768.411,855.184,840.242,0.000,0.000,0
1510777823.479,819.269,767.726,859.982,839.625,0.000,0.000,0
1510777823.481,823.998,767.178,868.892,831.538,0.000,0.000,0
1510777823.483,826.123,766.629,877.391,816.596,0.000,0.000,0
1510777823.485,836.198,772.867,880.681,819.269,0.000,0.000,0
1510777823.487,837.912,775.882,881.435,824.683,0.000,0.000,0
1510777823.489,836.815,767.178,884.999,829.070,0.000,0.000,0
1510777823.491,833.868,767.657,884.794,828.933,0.000,0.000,0
1510777823.493,834.485,774.306,883.697,836.404,0.000,0.000,0
1510777823.495,830.921,774.169,884.794,835.650,0.000,0.000,0
1510777823.497,827.425,774.991,883.354,830.784,0.000,0.000,0
1510777823.499,818.172,770.331,886.165,821.325,0.000,0.000,0
1510777823.501,823.381,769.371,887.398,827.836,0.000,0.000,0
1510777823.503,825.300,771.222,887.467,827.836,0.000,0.000,0
1510777823.505,827.288,773.141,886.644,826.260,0.000,0.000,0
1510777823.507,831.126,775.745,887.330,836.267,0.000,0.000,0
1510777823.509,830.098,775.608,886.370,838.529,0.000,0.000,0
1510777823.511,834.553,776.431,885.479,839.351,0.000,0.000,0
1510777823.513,834.485,775.403,882.463,832.360,0.000,0.000,0
1510777823.515,836.747,775.128,880.270,831.195,0.000,0.000,0
1510777823.517,837.912,775.266,883.149,829.413,0.000,0.000,0
1510777823.519,832.634,776.911,884.588,829.961,0.000,0.000,0
1510777823.521,833.320,776.773,883.286,830.647,0.000,0.000,0
1510777823.523,833.388,778.418,879.722,830.784,0.000,0.000,0
1510777823.525,826.877,772.455,878.831,830.784,0.000,0.000,0
1510777823.527,823.792,769.782,879.927,829.893,0.000,0.000,0
1510777823.529,824.889,771.770,880.339,829.550,0.000,0.000,0
1510777823.531,827.494,771.496,879.859,829.687,0.000,0.000,0
1510777823.533,826.397,771.153,879.996,827.357,0.000,0.000,0
1510777823.535,825.712,771.907,879.448,830.304,0.000,0.000,0
1510777823.537,815.225,772.250,875.883,823.381,0.000,0.000,0
1510777823.539,818.104,769.577,877.049,820.365,0.000,0.000,0
1510777823.541,829.687,767.863,879.859,822.216,0.000,0.000,0
1510777823.543,833.114,769.988,879.996,833.045,0.000,0.000,0
1510777823.545,832.360,771.976,879.859,831.949,0.000,0.000,0
1510777823.547,826.671,773.963,879.516,827.014,0.000,0.000,0
1510777823.549,824.478,771.153,878.351,821.736,0.000,0.000,0
1510777823.551,832.292,769.851,877.871,825.986,0.000,0.000,0
1510777823.553,837.501,764.916,879.105,840.654,0.000,0.000,0
1510777823.555,834.005,761.420,878.968,838.597,0.000,0.000,0
1510777823.557,829.070,763.682,877.117,828.727,0.000,0.000,0
1510777823.559,826.671,768.891,877.391,827.699,0.000,0.000,0
1510777823.561,839.831,767.726,878.214,833.388,0.000,0.000,0
1510777823.563,837.295,766.013,877.528,831.058,0.000,0.000,0
1510777823.565,830.167,766.629,875.472,830.235,0.000,0.000,0
1510777823.567,834.759,766.972,873.759,832.360,0.000,0.000,0
1510777823.569,835.307,765.327,875.472,839.557,0.000,0.000,0
1510777823.571,835.650,763.888,874.718,842.161,0.000,0.000,0
1510777823.573,833.045,760.803,873.690,840.996,0.000,0.000,0
1510777823.575,831.812,756.691,876.021,837.775,0.000,0.000,0
1510777823.577,827.151,758.473,875.404,833.320,0.000,0.000,0
1510777823.579,825.095,763.477,872.868,830.030,0.000,0.000,0
1510777823.581,822.010,769.097,872.525,818.857,0.000,0.000,0
1510777823.583,822.422,769.234,873.416,824.135,0.000,0.000,0
1510777823.585,820.845,765.464,873.416,826.260,0.000,0.000,0
1510777823.587,825.369,766.561,871.497,820.640,0.000,0.000,0
1510777823.589,828.864,768.000,869.783,822.970,0.000,0.000,0
1510777823.591,830.647,769.919,865.877,826.603,0.000,0.000,0
1510777823.593,825.575,763.614,864.300,826.328,0.000,0.000,0
1510777823.595,819.474,758.542,865.534,828.727,0.000,0.000,0
1510777823.597,819.063,757.582,866.425,826.740,0.000,0.000,0
1510777823.599,825.506,756.554,864.711,825.232,0.000,0.000,0
1510777823.601,822.147,758.404,867.521,825.712,0.000,0.000,0
1510777823.603,833.320,769.988,868.481,831.880,0.000,0.000,0
1510777823.605,841.476,770.468,870.537,835.581,0.000,0.000,0
1510777823.607,839.146,758.062,869.920,838.186,0.000,0.000,0
1510777823.609,838.049,755.183,865.534,840.242,0.000,0.000,0
1510777823.611,839.625,755.800,864.574,838.117,0.000,0.000,0
1510777823.613,845.657,753.127,864.094,838.940,0.000,0.000,0
1510777823.615,843.121,757.308,869.989,835.993,0.000,0.000,0
1510777823.617,839.694,763.888,872.731,833.662,0.000,0.000,0
1510777823.619,834.690,764.642,873.896,831.538,0.000,0.000,0
1510777823.621,827.425,762.174,871.223,826.328,0.000,0.000,0
1510777823.623,828.042,763.614,866.836,827.768,0.000,0.000,0
1510777823.625,826.123,763.134,866.836,831.400,0.000,0.000,0
1510777823.627,829.002,763.065,866.151,832.977,0.000,0.000,0
1510777823.629,830.921,759.844,870.743,835.924,0.000,0.000,0
1510777823.631,831.949,757.719,873.210,843.327,0.000,0.000,0
1510777823.633,841.613,756.280,873.622,848.056,0.000,0.000,0
1510777823.635,849.495,756.074,871.771,856.555,0.000,0.000,0
1510777823.637,840.722,756.485,870.469,846.274,0.000,0.000,0
1510777823.639,833.251,759.158,870.263,834.965,0.000,0.000,0
1510777823.641,829.481,765.670,866.014,824.067,0.000,0.000,0
1510777823.643,827.357,767.383,863.683,816.321,0.000,0.000,0
1510777823.645,825.506,761.489,863.889,818.515,0.000,0.000,0
1510777823.647,828.590,759.090,864.437,827.631,0.000,0.000,0
1510777823.649,829.070,756.348,862.449,828.864,0.000,0.000,0
1510777823.651,837.089,759.021,862.312,837.089,0.000,0.000,0
1510777823.653,834.759,761.420,860.051,838.255,0.000,0.000,0
1510777823.655,828.042,761.009,860.325,832.017,0.000,0.000,0
1510777823.657,832.154,758.062,861.833,830.921,0.000,0.000,0
1510777823.659,840.859,759.981,862.518,828.864,0.000,0.000,0
1510777823.661,836.061,755.457,860.530,821.188,0.000,0.000,0
1510777823.663,835.513,754.635,862.518,820.708,0.000,0.000,0
1510777823.665,834.005,754.909,861.764,822.285,0.000,0.000,0
1510777823.667,836.473,759.433,862.381,832.566,0.000,0.000,0
1510777823.669,840.654,760.255,863.889,835.719,0.000,0.000,0
1510777823.671,840.996,757.445,866.905,835.924,0.000,0.000,0
1510777823.673,839.146,756.897,866.562,837.775,0.000,0.000,0
1510777823.675,834.211,757.651,864.163,836.747,0.000,0.000,0
1510777823.677,832.566,758.953,863.957,835.719,0.000,0.000,0
1510777823.679,836.335,759.227,861.696,831.469,0.000,0.000,0
1510777823.681,837.706,759.364,860.325,821.873,0.000,0.000,0
1510777823.683,833.799,756.074,860.188,819.543,0.000,0.000,0
1510777823.685,833.251,753.264,861.764,822.559,0.000,0.000,0
1510777823.687,838.117,755.526,863.546,829.618,0.000,0.000,0
1510777823.689,842.367,757.308,862.792,834.553,0.000,0.000,0
1510777823.691,840.928,761.078,864.985,839.625,0.000,0.000,0
1510777823.693,842.367,761.900,865.808,841.407,0.000,0.000,0
1510777823.695,844.697,762.174,865.602,841.407,0.000,0.000,0
1510777823.697,839.488,759.912,862.518,833.731,0.000,0.000,0
1510777823.699,838.392,757.651,858.817,829.687,0.000,0.000,0
1510777823.701,851.552,754.909,858.063,836.267,0.000,0.000,0
1510777823.703,854.430,754.772,860.256,836.610,0.000,0.000,0
1510777823.705,852.374,758.199,857.926,834.211,0.000,0.000,0
1510777823.707,848.536,752.716,857.103,833.045,0.000,0.000,0
1510777823.709,834.485,755.731,853.882,829.755,0.000,0.000,0
1510777823.711,840.859,759.021,854.019,839.557,0.000,0.000,0
1510777823.713,830.715,752.304,857.172,835.650,0.000,0.000,0
1510777823.715,830.304,749.631,856.075,835.444,0.000,0.000,0
1510777823.717,832.566,756.143,858.200,834.622,0.000,0.000,0
1510777823.719,840.105,754.840,854.910,832.360,0.000,0.000,0
1510777823.721,838.460,752.441,854.088,832.771,0.000,0.000,0
1510777823.723,839.557,759.570,858.337,834.416,0.000,0.000,0
1510777823.725,843.258,764.093,860.325,837.501,0.000,0.000,0
1510777823.727,846.617,766.424,862.518,841.339,0.000,0.000,0
1510777823.729,847.096,764.162,861.353,836.678,0.000,0.000,0
1510777823.731,844.492,759.912,860.051,842.436,0.000,0.000,0
1510777823.733,841.202,760.324,857.035,842.915,0.000,0.000,0
1510777823.735,837.980,762.654,857.446,839.077,0.000,0.000,0
1510777823.737,835.376,763.134,859.708,837.158,0.000,0.000,0
1510777823.739,840.242,764.847,859.228,838.940,0.000,0.000,0
1510777823.741,840.996,765.053,858.474,834.005,0.000,0.000,0
1510777823.743,838.117,764.162,858.337,833.251,0.000,0.000,0
1510777823.745,841.407,762.928,858.543,829.824,0.000,0.000,0
1510777823.747,845.726,764.436,859.022,837.501,0.000,0.000,0
1510777823.749,841.202,761.763,860.188,839.420,0.000,0.000,0
1510777823.751,843.190,763.408,861.421,845.657,0.000,0.000,0
1510777823.753,842.778,768.549,859.776,845.246,0.000,0.000,0
1510777823.755,842.436,771.290,855.938,840.242,0.000,0.000,0
1510777823.757,840.996,769.714,855.047,834.622,0.000,0.000,0
1510777823.759,839.283,764.436,855.458,827.425,0.000,0.000,0
1510777823.761,841.476,763.202,854.225,828.248,0.000,0.000,0
1510777823.763,844.081,766.287,856.075,834.074,0.000,0.000,0
1510777823.765,843.806,765.807,855.184,833.183,0.000,0.000,0
1510777823.767,843.532,763.477,854.293,833.045,0.000,0.000,0
1510777823.769,847.508,760.735,851.346,833.457,0.000,0.000,0
1510777823.771,844.629,756.485,853.402,836.267,0.000,0.000,0
1510777823.773,841.270,758.953,854.636,837.021,0.000,0.000,0
1510777823.775,842.915,762.037,851.072,840.174,0.000,0.000,0
1510777823.777,836.952,759.364,851.414,835.924,0.000,0.000,0
1510777823.779,841.887,761.078,851.140,830.167,0.000,0.000,0
1510777823.781,845.314,761.763,852.785,831.949,0.000,0.000,0
1510777823.783,835.239,757.376,850.455,822.079,0.000,0.000,0
1510777823.785,831.606,756.006,849.016,820.777,0.000,0.000,0
1510777823.787,836.747,755.800,850.386,829.755,0.000,0.000,0
1510777823.789,836.404,757.102,851.620,835.581,0.000,0.000,0
1510777823.791,833.388,762.243,852.168,838.323,0.000,0.000,0
1510777823.793,832.017,763.614,852.717,843.052,0.000,0.000,0
1510777823.795,830.578,762.517,853.539,834.485,0.000,0.000,0
1510777823.797,830.304,764.093,854.088,838.734,0.000,0.000,0
1510777823.799,825.917,759.090,852.100,832.840,0.000,0.000,0
1510777823.801,836.541,753.538,853.745,836.061,0.000,0.000,0
1510777823.803,838.186,756.897,854.704,836.473,0.000,0.000,0
1510777823.805,836.473,759.501,853.196,832.429,0.000,0.000,0
1510777823.807,834.965,761.420,853.813,833.525,0.000,0.000,0
1510777823.809,830.784,766.904,855.801,835.170,0.000,0.000,0
1510777823.811,837.980,769.645,854.636,842.367,0.000,0.000,0
1510777823.813,834.485,769.440,852.305,831.538,0.000,0.000,0
1510777823.815,836.610,768.000,849.906,827.494,0.000,0.000,0
1510777823.817,837.843,767.589,848.262,828.522,0.000,0.000,0
1510777823.819,836.747,767.932,849.632,828.933,0.000,0.000,0
1510777823.821,833.114,769.508,850.455,825.232,0.000,0.000,0
1510777823.823,835.376,769.028,850.455,830.715,0.000,0.000,0
1510777823.825,835.170,766.698,850.112,834.622,0.000,0.000,0
1510777823.827,834.965,764.984,849.016,831.058,0.000,0.000,0
1510777823.829,831.675,765.601,847.165,825.369,0.000,0.000,0
1510777823.831,829.481,764.230,845.451,826.054,0.000,0.000,0
1510777823.833,832.292,764.436,846.274,835.993,0.000,0.000,0
1510777823.835,835.444,766.698,846.891,838.803,0.000,0.000,0
1510777823.837,834.485,764.299,847.850,834.690,0.000,0.000,0
1510777823.839,832.497,763.134,845.383,830.098,0.000,0.000,0
1510777823.841,829.413,767.795,843.806,828.111,0.000,0.000,0
1510777823.843,826.260,769.988,846.068,830.509,0.000,0.000,0
1510777823.845,824.889,767.178,844.492,827.699,0.000,0.000,0
1510777823.847,834.690,763.751,844.629,828.111,0.000,0.000,0
1510777823.849,836.473,763.819,848.741,829.618,0.000,0.000,0
1510777823.851,842.093,765.670,851.826,834.690,0.000,0.000,0
1510777823.853,840.722,763.339,852.991,836.952,0.000,0.000,0
1510777823.855,839.625,760.049,852.580,841.270,0.000,0.000,0
1510777823.857,839.831,760.940,850.318,839.762,0.000,0.000,0
1510777823.859,841.956,764.093,851.757,837.295,0.000,0.000,0
1510777823.861,838.323,764.368,853.334,827.288,0.000,0.000,0
1510777823.863,838.392,763.477,852.580,822.970,0.000,0.000,0
1510777823.865,832.360,763.956,849.701,824.272,0.000,0.000,0
1510777823.867,834.074,765.738,851.826,832.634,0.000,0.000,0
1510777823.869,832.360,768.343,852.237,837.843,0.000,0.000,0
1510777823.871,837.501,763.819,854.019,842.436,0.000,0.000,0
1510777823.873,838.940,764.299,854.019,844.697,0.000,0.000,0
1510777823.875,840.379,765.121,853.950,841.202,0.000,0.000,0
1510777823.877,843.052,768.206,854.567,835.513,0.000,0.000,0
1510777823.879,836.198,769.714,852.100,825.917,0.000,0.000,0
1510777823.881,832.292,768.823,849.153,824.615,0.000,0.000,0
1510777823.883,830.167,769.371,848.947,832.977,0.000,0.000,0
1510777823.885,835.307,770.536,846.822,837.158,0.000,0.000,0
1510777823.887,835.924,768.411,847.165,835.993,0.000,0.000,0
1510777823.889,839.625,765.807,848.878,844.218,0.000,0.000,0
1510777823.891,845.314,765.327,850.249,848.399,0.000,0.000,0
1510777823.893,844.423,767.726,851.552,853.196,0.000,0.000,0
1510777823.895,842.915,764.025,850.729,850.112,0.000,0.000,0
1510777823.897,833.114,759.638,847.782,837.638,0.000,0.000,0
1510777823.899,834.211,761.009,847.508,836.541,0.000,0.000,0
1510777823.901,830.784,763.271,849.358,834.142,0.000,0.000,0
1510777823.903,829.755,766.904,850.798,834.279,0.000,0.000,0
1510777823.905,833.183,766.492,850.181,835.581,0.000,0.000,0
1510777823.907,831.949,768.206,848.947,838.734,0.000,0.000,0
1510777823.909,832.771,767.795,851.552,839.146,0.000,0.000,0
1510777823.911,830.578,769.988,851.963,837.912,0.000,0.000,0
1510777823.913,829.893,770.331,851.140,837.295,0.000,0.000,0
1510777823.915,825.506,769.988,851.689,834.759,0.000,0.000,0
1510777823.917,831.126,768.480,852.168,837.364,0.000,0.000,0
1510777823.919,838.803,769.302,851.346,839.283,0.000,0.000,0
1510777823.921,836.952,769.782,850.249,835.307,0.000,0.000,0
1510777823.923,832.292,768.617,849.427,834.416,0.000,0.000,0
1510777823.925,838.734,766.904,848.741,836.747,0.000,0.000,0
1510777823.927,835.856,767.795,849.564,838.803,0.000,0.000,0
1510777823.929,834.279,767.109,848.810,842.093,0.000,0.000,0
1510777823.931,831.812,769.508,847.713,838.871,0.000,0.000,0
1510777823.933,836.815,770.947,846.000,838.117,0.000,0.000,0
1510777823.935,836.404,770.810,846.822,833.320,0.000,0.000,0
1510777823.937,830.852,771.222,847.713,831.469,0.000,0.000,0
1510777823.939,826.945,770.193,846.959,833.457,0.000,0.000,0
1510777823.941,827.494,770.605,846.617,832.360,0.000,0.000,0
1510777823.943,830.441,769.919,847.713,822.970,0.000,0.000,0
1510777823.945,835.513,771.359,846.274,829.413,0.000,0.000,0
1510777823.947,843.875,770.879,845.177,840.928,0.000,0.000,0
1510777823.949,839.762,767.178,843.943,840.585,0.000,0.000,0
1510777823.951,836.061,767.520,842.778,842.504,0.000,0.000,0
1510777823.953,835.033,768.823,843.875,844.972,0.000,0.000,0
1510777823.955,844.149,767.452,847.645,847.370,0.000,0.000,0
1510777823.957,849.906,766.424,849.701,850.249,0.000,0.000,0
1510777823.959,848.193,769.165,847.713,851.072,0.000,0.000,0
1510777823.961,839.557,770.331,846.342,844.560,0.000,0.000,0
1510777823.963,832.703,768.617,845.726,834.211,0.000,0.000,0
1510777823.965,831.538,768.549,846.891,834.759,0.000,0.000,0
1510777823.967,831.263,769.165,846.822,834.416,0.000,0.000,0
1510777823.969,834.965,768.343,845.246,837.226,0.000,0.000,0
1510777823.971,830.989,768.617,845.040,845.657,0.000,0.000,0
1510777823.973,823.176,769.782,843.669,847.850,0.000,0.000,0
1510777823.975,833.183,767.383,844.834,847.096,0.000,0.000,0
1510777823.977,842.161,768.549,851.826,849.153,0.000,0.000,0
1510777823.979,840.311,764.505,852.854,842.778,0.000,0.000,0
1510777823.981,834.965,763.134,849.016,829.550,0.000,0.000,0
1510777823.983,832.771,764.299,844.355,827.288,0.000,0.000,0
1510777823.985,834.416,767.795,840.654,833.525,0.000,0.000,0
1510777823.987,840.585,766.013,843.258,836.130,0.000,0.000,0
1510777823.989,839.351,768.891,841.819,833.251,0.000,0.000,0
1510777823.991,835.787,771.153,840.037,833.868,0.000,0.000,0
1510777823.993,839.009,773.483,842.093,842.093,0.000,0.000,0
1510777823.995,838.666,769.714,843.601,844.423,0.000,0.000,0
1510777823.997,832.497,768.069,845.726,836.815,0.000,0.000,0
1510777823.999,824.272,768.480,845.314,831.880,0.000,0.000,0
1510777824.001,822.764,769.097,844.286,830.852,0.000,0.000,0
1510777824.003,824.546,769.782,842.436,825.163,0.000,0.000,0
1510777824.005,821.051,772.113,841.956,824.889,0.000,0.000,0
1510777824.007,822.627,767.795,843.532,827.905,0.000,0.000,0
1510777824.009,833.251,768.891,844.629,827.905,0.000,0.000,0
1510777824.011,838.734,768.686,842.093,830.784,0.000,0.000,0
1510777824.013,834.759,766.835,840.654,832.154,0.000,0.000,0
1510777824.015,833.799,767.383,840.037,829.755,0.000,0.000,0
1510777824.017,825.986,767.589,839.283,823.244,0.000,0.000,0
1510777824.019,823.450,768.343,842.230,823.107,0.000,0.000,0
1510777824.021,825.095,769.919,844.492,822.490,0.000,0.000,0
1510777824.023,829.070,770.536,843.464,822.559,0.000,0.000,0
1510777824.025,824.752,770.468,840.379,819.337,0.000,0.000,0
1510777824.027,827.768,772.181,842.847,821.256,0.000,0.000,0
1510777824.029,829.276,774.443,845.520,822.901,0.000,0.000,0
1510777824.031,827.425,774.375,848.810,826.397,0.000,0.000,0
1510777824.033,830.989,771.564,845.520,829.824,0.000,0.000,0
1510777824.035,832.703,775.882,846.205,834.828,0.000,0.000,0
1510777824.037,836.815,781.229,848.878,837.295,0.000,0.000,0
1510777824.039,837.089,781.091,853.196,834.965,0.000,0.000,0
1510777824.041,829.755,778.144,852.168,827.288,0.000,0.000,0
1510777824.043,824.409,773.415,848.124,819.063,0.000,0.000,0
1510777824.045,818.583,773.209,842.230,816.938,0.000,0.000,0
1510777824.047,807.891,770.605,841.476,806.040,0.000,0.000,0
1510777824.049,805.972,769.097,843.875,807.068,0.000,0.000,0
1510777824.051,814.197,775.403,846.000,816.047,0.000,0.000,0
1510777824.053,817.075,782.599,846.822,824.204,0.000,0.000,0
1510777824.055,816.390,784.313,853.128,827.219,0.000,0.000,0
1510777824.057,813.169,785.341,854.636,814.334,0.000,0.000,0
1510777824.059,799.872,779.789,854.567,803.162,0.000,0.000,0
1510777824.061,785.135,774.580,852.648,790.070,0.000,0.000,0
1510777824.063,778.830,772.524,854.910,783.902,0.000,0.000,0
1510777824.065,769.919,776.362,851.277,776.431,0.000,0.000,0
1510777824.067,768.274,775.403,849.221,768.617,0.000,0.000,0
1510777824.069,768.069,774.854,849.358,765.259,0.000,0.000,0
1510777824.071,763.682,774.786,853.813,766.424,0.000,0.000,0
1510777824.073,751.276,776.431,855.116,762.791,0.000,0.000,0
1510777824.075,743.120,775.060,856.075,762.037,0.000,0.000,0
1510777824.077,739.350,776.019,854.910,739.419,0.000,0.000,0
1510777824.079,724.408,777.664,853.265,717.623,0.000,0.000,0
1510777824.081,711.934,778.281,851.140,706.519,0.000,0.000,0
1510777824.083,711.591,782.188,853.745,713.579,0.000,0.000,0
1510777824.085,708.712,778.555,857.035,713.579,0.000,0.000,0
1510777824.087,708.507,772.387,857.857,711.043,0.000,0.000,0
1510777824.089,708.438,770.468,858.406,703.709,0.000,0.000,0
1510777824.091,701.790,773.415,856.966,693.908,0.000,0.000,0
1510777824.093,687.876,770.262,850.592,683.421,0.000,0.000,0
1510777824.095,682.941,771.222,847.576,682.941,0.000,0.000,0
1510777824.097,677.595,771.359,848.330,675.264,0.000,0.000,0
1510777824.099,682.256,768.754,852.443,677.938,0.000,0.000,0
1510777824.101,684.929,771.427,854.910,678.280,0.000,0.000,0
1510777824.103,685.957,773.826,856.486,678.280,0.000,0.000,0
1510777824.104,686.025,774.100,854.841,678.280,0.000,0.000,0
1510777824.106,687.670,771.701,852.100,685.340,0.000,0.000,0
1510777824.108,691.234,772.387,847.028,687.944,0.000,0.000,0
1510777824.110,691.303,769.782,846.068,679.925,0.000,0.000,0
1510777824.112,700.282,770.947,845.246,688.013,0.000,0.000,0
1510777824.114,703.366,770.879,842.504,694.661,0.000,0.000,0
1510777824.116,708.233,768.069,843.532,700.830,0.000,0.000,0
1510777824.118,709.809,762.928,844.766,705.148,0.000,0.000,0
1510777824.120,718.788,759.775,848.467,717.143,0.000,0.000,0
1510777824.122,729.823,761.969,849.221,720.776,0.000,0.000,0
1510777824.124,732.839,768.000,851.757,726.944,0.000,0.000,0
1510777824.126,738.939,775.882,847.919,732.633,0.000,0.000,0
1510777824.128,748.398,781.091,846.411,736.814,0.000,0.000,0
1510777824.130,749.220,777.527,847.850,742.640,0.000,0.000,0
1510777824.132,743.805,780.543,843.327,750.111,0.000,0.000,0
1510777824.134,754.909,779.995,840.448,760.392,0.000,0.000,0
1510777824.136,768.137,778.350,840.037,767.315,0.000,0.000,0
1510777824.138,769.371,775.540,837.775,772.181,0.000,0.000,0
1510777824.140,775.128,770.673,836.130,771.359,0.000,0.000,0
1510777824.142,787.466,769.577,836.130,775.060,0.000,0.000,0
1510777824.144,795.348,775.951,842.641,781.297,0.000,0.000,0
1510777824.146,801.654,769.988,838.460,787.946,0.000,0.000,0
1510777824.148,808.713,768.549,836.815,794.868,0.000,0.000,0
1510777824.150,810.770,769.577,834.828,796.856,0.000,0.000,0
1510777824.152,806.657,768.549,835.444,799.735,0.000,0.000,0
1510777824.154,808.439,768.960,836.404,805.492,0.000,0.000,0
1510777824.156,822.216,771.427,838.803,812.209,0.000,0.000,0
1510777824.158,823.587,775.471,837.158,812.552,0.000,0.000,0
1510777824.160,822.285,779.378,835.307,810.084,0.000,0.000,0
1510777824.162,821.942,779.995,834.074,811.181,0.000,0.000,0
1510777824.164,817.624,773.004,836.061,813.443,0.000,0.000,0
1510777824.166,825.780,768.823,837.980,825.780,0.000,0.000,0
1510777824.168,847.302,782.736,851.346,846.548,0.000,0.000,0
1510777824.170,848.056,779.858,846.274,853.608,0.000,0.000,0
1510777824.172,842.161,768.617,835.581,847.165,0.000,0.000,0
1510777824.174,840.448,765.944,833.251,837.569,0.000,0.000,0
1510777824.176,842.710,771.153,836.267,834.416,0.000,0.000,0
1510777824.178,850.523,774.512,840.105,844.766,0.000,0.000,0
1510777824.180,851.072,774.991,839.625,852.031,0.000,0.000,0
1510777824.182,851.072,778.693,840.311,858.200,0.000,0.000,0
1510777824.184,854.225,773.415,841.750,866.768,0.000,0.000,0
1510777824.186,855.527,768.000,840.242,864.232,0.000,0.000,0
1510777824.188,853.539,765.396,839.351,857.652,0.000,0.000,0
1510777824.190,855.664,764.505,840.379,861.490,0.000,0.000,0
1510777824.192,872.182,760.940,844.972,878.968,0.000,0.000,0
1510777824.194,876.569,760.872,847.096,875.746,0.000,0.000,0
1510777824.196,880.613,771.839,843.258,870.263,0.000,0.000,0
1510777824.198,879.653,776.636,843.943,866.356,0.000,0.000,0
1510777824.200,871.634,776.157,840.859,867.316,0.000,0.000,0
1510777824.202,872.319,774.375,844.149,873.142,0.000,0.000,0
1510777824.204,880.339,775.745,851.963,878.214,0.000,0.000,0
1510777824.206,886.439,781.503,857.309,893.293,0.000,0.000,0
1510777824.208,881.504,778.967,861.079,894.938,0.000,0.000,0
1510777824.210,870.606,755.320,846.479,880.818,0.000,0.000,0
1510777824.212,877.528,750.659,842.915,876.569,0.000,0.000,0
1510777824.214,878.282,752.373,844.834,874.581,0.000,0.000,0
1510777824.216,879.379,758.747,848.056,875.472,0.000,0.000,0
1510777824.218,879.722,766.698,851.003,875.815,0.000,0.000,0
1510777824.220,878.899,768.549,851.757,878.351,0.000,0.000,0
1510777824.222,882.395,770.605,850.660,882.601,0.000,0.000,0
1510777824.224,886.987,769.234,850.866,886.165,0.000,0.000,0
1510777824.226,890.277,775.951,854.704,887.330,0.000,0.000,0
1510777824.228,889.112,775.471,857.994,889.592,0.000,0.000,3
1510777824.230,886.576,764.162,855.527,882.395,0.000,0.000,0
1510777824.232,891.922,768.960,856.144,889.934,0.000,0.000,0
1510777824.234,888.632,773.621,854.156,888.221,0.000,0.000,0
1510777824.236,889.043,776.705,853.813,886.850,0.000,0.000,0
1510777824.238,887.604,779.104,853.676,882.463,0.000,0.000,0
1510777824.240,884.725,778.007,855.458,884.999,0.000,0.000,0
1510777824.242,883.217,773.826,857.240,887.330,0.000,0.000,0
1510777824.244,878.831,771.153,855.321,882.875,0.000,0.000,0
1510777824.246,883.629,770.673,858.474,883.560,0.000,0.000,0
1510777824.248,891.374,768.343,860.188,884.931,0.000,0.000,0
1510777824.250,886.165,765.670,857.720,880.064,0.000,0.000,0
1510777824.252,879.036,766.218,854.362,881.093,0.000,0.000,0
1510777824.254,879.036,767.178,855.458,888.495,0.000,0.000,0
1510777824.256,884.931,768.206,855.458,886.850,0.000,0.000,0
1510777824.258,883.560,768.206,856.692,883.971,0.000,0.000,0
1510777824.260,882.395,770.125,862.038,883.149,0.000,0.000,0
1510777824.262,876.432,773.072,860.942,871.977,0.000,0.000,0
1510777824.264,870.743,767.863,856.144,872.182,0.000,0.000,0
1510777824.266,870.332,765.259,849.838,875.883,0.000,0.000,0
1510777824.268,873.964,766.287,848.741,871.154,0.000,0.000,0
1510777824.270,877.460,766.150,854.088,872.251,0.000,0.000,0
1510777824.272,883.012,765.807,859.228,878.625,0.000,0.000,0
1510777824.274,891.168,766.150,858.474,880.750,0.000,0.000,0
1510777824.276,893.841,759.570,858.268,888.838,0.000,0.000,0
1510777824.278,888.358,755.183,857.583,887.604,0.000,0.000,0
1510777824.280,881.367,764.984,855.938,882.806,0.000,0.000,0
1510777824.282,885.205,772.935,855.184,881.024,0.000,0.000,0
1510777824.284,894.732,775.403,859.297,888.632,0.000,0.000,0
1510777824.286,895.418,784.998,860.051,890.414,0.000,0.000,0
1510777824.288,892.128,790.276,859.022,885.137,0.000,0.000,0
1510777824.290,896.172,782.805,856.212,886.713,0.000,0.000,0
1510777824.292,897.748,779.104,854.910,889.386,0.000,0.000,0
1510777824.294,891.991,776.911,855.116,884.314,0.000,0.000,0
1510777824.296,888.701,776.773,855.527,880.407,0.000,0.000,0
1510777824.298,887.947,775.060,858.543,874.581,0.000,0.000,0
1510777824.300,894.732,776.705,859.571,883.286,0.000,0.000,0
1510777824.302,895.006,775.197,859.982,885.616,0.000,0.000,0
1510777824.304,892.745,774.717,859.228,884.862,0.000,0.000,0
1510777824.306,890.757,776.705,859.845,889.318,0.000,0.000,0
1510777824.308,889.523,781.229,859.571,889.797,0.000,0.000,0
1510777824.310,882.121,782.462,860.393,881.709,0.000,0.000,0
1510777824.312,879.790,778.693,863.341,884.794,0.000,0.000,0
1510777824.314,881.367,774.169,862.449,884.862,0.000,0.000,0
1510777824.316,885.822,775.951,862.518,888.495,0.000,0.000,0
1510777824.318,884.794,774.717,868.618,885.616,0.000,0.000,0
1510777824.320,888.838,771.222,866.973,882.326,0.000,0.000,0
1510777824.322,886.233,763.888,863.820,880.681,0.000,0.000,0
1510777824.324,882.052,769.508,857.994,881.641,0.000,0.000,0
1510777824.326,877.186,773.689,855.938,874.855,0.000,0.000,0
1510777824.328,882.121,774.717,856.486,876.775,0.000,0.000,0
1510777824.330,883.354,774.512,856.349,877.803,0.000,0.000,0
1510777824.332,885.959,770.947,857.652,881.504,0.000,0.000,0
1510777824.334,889.043,774.786,859.708,888.221,0.000,0.000,0
1510777824.336,890.346,786.301,869.167,896.240,0.000,0.000,0
1510777824.338,890.551,794.251,874.581,898.776,0.000,0.000,0
1510777824.340,873.005,776.362,858.337,870.537,0.000,0.000,0
1510777824.342,870.400,769.988,852.648,860.805,0.000,0.000,0
1510777824.344,875.335,773.141,855.527,870.263,0.000,0.000,0
1510777824.346,881.709,776.773,860.051,876.912,0.000,0.000,0
1510777824.348,892.813,781.229,861.627,887.535,0.000,0.000,0
1510777824.350,894.938,778.624,861.353,886.987,0.000,0.000,0
1510777824.352,897.474,772.250,861.010,892.059,0.000,0.000,0
1510777824.354,894.047,773.141,863.272,894.458,0.000,0.000,0
1510777824.356,889.455,775.951,863.683,887.741,0.000,0.000,0
1510777824.358,876.363,780.886,861.696,876.089,0.000,0.000,0
1510777824.360,879.653,780.132,862.244,875.746,0.000,0.000,0
1510777824.362,880.544,772.318,860.256,867.864,0.000,0.000,0
1510777824.364,881.161,774.032,859.160,868.070,0.000,0.000,0
1510777824.366,880.270,777.048,864.985,875.335,0.000,0.000,0
1510777824.368,880.613,778.624,866.630,881.572,0.000,0.000,0
1510777824.370,879.927,777.596,864.232,884.451,0.000,0.000,0
1510777824.372,872.799,779.995,862.244,879.722,0.000,0.000,0
1510777824.374,878.831,782.531,862.861,884.383,0.000,0.000,0
1510777824.376,878.214,778.761,863.889,877.254,0.000,0.000,0
1510777824.378,874.033,781.503,863.272,872.388,0.000,0.000,0
1510777824.380,873.279,777.939,862.175,867.864,0.000,0.000,0
1510777824.382,879.242,778.213,862.587,873.896,0.000,0.000,0
1510777824.384,880.818,776.431,860.667,875.541,0.000,0.000,0
1510777824.386,879.790,776.979,864.026,877.666,0.000,0.000,0
1510777824.388,875.678,780.749,868.481,880.818,0.000,0.000,0
1510777824.390,876.432,784.107,867.247,879.927,0.000,0.000,0
1510777824.392,876.843,781.914,865.465,878.077,0.000,0.000,0
1510777824.394,868.687,775.197,863.066,871.771,0.000,0.000,0
1510777824.396,863.203,772.387,861.284,867.316,0.000,0.000,0
1510777824.398,858.817,772.181,862.107,859.502,0.000,0.000,0
1510777824.400,858.611,773.621,860.736,855.321,0.000,0.000,0
1510777824.402,860.256,776.636,858.954,848.673,0.000,0.000,0
1510777824.404,860.667,778.281,860.119,857.240,0.000,0.000,0
1510777824.406,862.655,778.693,861.147,867.042,0.000,0.000,0
1510777824.408,865.260,777.116,861.764,867.864,0.000,0.000,0
1510777824.410,864.369,776.019,861.284,864.026,0.000,0.000,0
1510777824.412,869.029,774.100,864.163,866.288,0.000,0.000,0
1510777824.414,880.064,773.141,866.014,876.432,0.000,0.000,0
1510777824.416,877.460,777.802,866.630,874.787,0.000,0.000,0
1510777824.418,872.182,780.954,867.453,871.017,0.000,0.000,0
1510777824.420,865.671,778.624,868.892,869.989,0.000,0.000,0
1510777824.422,865.671,778.967,867.521,869.783,0.000,0.000,0
1510777824.424,868.687,777.116,861.421,865.671,0.000,0.000,0
1510777824.426,862.175,777.253,859.708,862.792,0.000,0.000,0
1510777824.428,861.833,782.325,858.611,869.852,0.000,0.000,0
1510777824.430,863.341,781.777,856.418,866.493,0.000,0.000,0
1510777824.432,863.752,774.032,857.103,867.933,0.000,0.000,0
1510777824.434,858.406,769.988,859.708,866.288,0.000,0.000,0
1510777824.436,851.894,770.193,858.748,865.123,0.000,0.000,0
1510777824.438,857.857,770.536,860.530,863.820,0.000,0.000,0
1510777824.440,852.580,769.165,857.994,854.088,0.000,0.000,0
1510777824.442,850.592,772.524,855.527,848.673,0.000,0.000,0
1510777824.444,851.003,776.088,852.991,848.878,0.000,0.000,0
1510777824.446,855.938,780.063,853.196,852.374,0.000,0.000,0
1510777824.448,859.776,785.684,857.035,857.515,0.000,0.000,0
1510777824.450,858.817,785.272,854.567,854.910,0.000,0.000,0
1510777824.452,860.667,782.188,852.374,859.776,0.000,0.000,0
1510777824.454,861.627,779.858,852.991,863.203,0.000,0.000,0
1510777824.456,858.406,775.266,853.402,860.942,0.000,0.000,0
1510777824.458,860.325,770.399,857.446,859.091,0.000,0.000,0
1510777824.460,857.446,772.387,857.789,854.841,0.000,0.000,0
1510777824.462,859.708,773.141,855.184,854.362,0.000,0.000,0
1510777824.464,857.720,771.633,852.785,854.773,0.000,0.000,0
1510777824.466,855.116,772.387,851.072,849.358,0.000,0.000,0
1510777824.468,856.349,773.415,852.580,847.919,0.000,0.000,0
1510777824.470,858.474,774.580,855.801,854.773,0.000,0.000,0
1510777824.472,863.203,777.939,853.745,862.998,0.000,0.000,0
1510777824.474,864.094,778.350,855.870,867.110,0.000,0.000,0
1510777824.476,861.079,779.721,859.639,862.449,0.000,0.000,0
1510777824.478,851.826,779.652,858.885,855.458,0.000,0.000,0
1510777824.480,847.645,775.882,856.966,856.829,0.000,0.000,0
1510777824.482,853.813,777.253,855.664,862.724,0.000,0.000,0
1510777824.484,855.116,778.693,852.237,858.474,0.000,0.000,0
1510777824.486,850.523,772.592,852.648,855.184,0.000,0.000,0
1510777824.488,850.044,770.536,849.221,856.692,0.000,0.000,0
1510777824.490,853.813,773.758,848.810,857.172,0.000,0.000,0
1510777824.492,859.913,774.717,846.959,861.627,0.000,0.000,0
1510777824.494,864.917,775.608,846.617,868.413,0.000,0.000,0
1510777824.496,857.377,771.290,849.495,861.216,0.000,0.000,0
1510777824.498,853.128,771.290,852.991,854.362,0.000,0.000,0
1510777824.500,851.689,776.911,852.237,853.745,0.000,0.000,0
1510777824.502,855.047,776.431,852.305,855.870,0.000,0.000,0
1510777824.504,863.889,771.153,853.539,861.833,0.000,0.000,0
1510777824.506,872.525,774.649,853.813,866.425,0.000,0.000,0
1510777824.508,864.574,773.689,853.128,858.474,0.000,0.000,0
1510777824.510,857.652,769.577,855.116,860.667,0.000,0.000,0
1510777824.512,852.374,771.222,855.116,860.393,0.000,0.000,0
1510777824.514,854.704,774.306,854.910,867.247,0.000,0.000,0
1510777824.516,853.539,776.773,854.293,862.929,0.000,0.000,0
1510777824.518,852.443,777.733,850.729,855.732,0.000,0.000,0
1510777824.520,850.935,776.568,852.168,848.604,0.000,0.000,0
1510777824.522,852.717,778.281,851.003,848.810,0.000,0.000,0
1510777824.524,843.258,779.035,849.495,849.495,0.000,0.000,0
1510777824.526,843.327,776.705,849.975,849.564,0.000,0.000,0
1510777824.528,850.660,777.664,851.346,857.446,0.000,0.000,0
1510777824.530,856.281,779.584,849.290,859.982,0.000,0.000,0
1510777824.532,856.486,777.733,852.854,857.857,0.000,0.000,0
1510777824.534,849.358,772.181,854.156,854.567,0.000,0.000,0
1510777824.536,847.782,767.589,854.773,850.249,0.000,0.000,0
1510777824.538,856.144,768.754,851.209,850.523,0.000,0.000,0
1510777824.540,856.007,770.879,850.044,850.386,0.000,0.000,0
1510777824.542,854.225,774.100,852.648,854.293,0.000,0.000,0
1510777824.544,851.003,780.749,851.689,854.910,0.000,0.000,0
1510777824.546,850.112,777.802,852.168,853.196,0.000,0.000,0
1510777824.548,851.689,776.088,848.878,853.813,0.000,0.000,0
1510777824.550,855.938,777.390,850.181,857.240,0.000,0.000,0
1510777824.552,857.240,776.705,852.305,860.736,0.000,0.000,0
1510777824.554,856.624,779.378,852.100,863.752,0.000,0.000,0
1510777824.556,855.047,778.144,847.576,860.667,0.000,0.000,0
1510777824.558,849.701,777.048,847.576,854.636,0.000,0.000,0
1510777824.560,849.016,775.128,849.701,853.813,0.000,0.000,0
1510777824.562,862.244,780.269,851.072,857.720,0.000,0.000,0
1510777824.564,859.845,776.979,848.262,847.713,0.000,0.000,0
1510777824.566,855.116,773.963,846.342,840.242,0.000,0.000,0
1510777824.568,848.947,770.331,845.931,846.754,0.000,0.000,0
1510777824.570,847.987,771.976,847.028,854.773,0.000,0.000,0
1510777824.572,853.539,770.605,847.782,860.051,0.000,0.000,0
1510777824.574,857.789,768.480,847.028,863.546,0.000,0.000,0
1510777824.576,851.963,765.396,849.495,855.664,0.000,0.000,0
1510777824.578,845.040,765.601,849.084,845.451,0.000,0.000,0
1510777824.580,845.314,766.698,846.479,846.617,0.000,0.000,0
1510777824.582,848.262,769.851,844.286,853.402,0.000,0.000,0
1510777824.584,853.128,768.069,846.274,857.857,0.000,0.000,0
1510777824.586,852.305,764.230,848.262,861.833,0.000,0.000,0
1510777824.588,852.717,763.819,845.657,859.228,0.000,0.000,0
1510777824.590,863.478,770.879,844.081,862.587,0.000,0.000,0
1510777824.592,882.326,779.241,845.177,878.557,0.000,0.000,0
1510777824.594,885.205,786.301,850.249,888.906,0.000,0.000,0
1510777824.596,870.057,782.531,853.334,873.416,0.000,0.000,0
1510777824.598,858.200,775.128,852.580,855.116,0.000,0.000,0
1510777824.600,844.149,769.508,850.112,839.009,0.000,0.000,0
1510777824.602,829.893,768.411,847.850,828.111,0.000,0.000,0
1510777824.604,823.655,768.206,846.548,826.808,0.000,0.000,0
1510777824.606,828.590,769.097,846.822,836.198,0.000,0.000,0
1510777824.608,828.659,770.056,848.056,835.993,0.000,0.000,0
1510777824.610,822.353,769.371,843.052,822.079,0.000,0.000,0
1510777824.612,811.181,768.000,836.267,808.851,0.000,0.000,0
1510777824.614,805.149,764.505,832.771,813.511,0.000,0.000,0
1510777824.616,804.190,766.013,833.045,813.923,0.000,0.000,0
1510777824.618,805.629,766.561,838.049,812.209,0.000,0.000,0
1510777824.620,802.819,767.109,840.791,807.411,0.000,0.000,0
1510777824.622,801.654,771.153,840.722,799.460,0.000,0.000,0
1510777824.624,801.174,773.346,840.379,799.323,0.000,0.000,0
1510777824.626,805.835,771.564,841.476,803.710,0.000,0.000,0
1510777824.628,815.773,768.206,845.314,813.237,0.000,0.000,0
1510777824.630,814.265,772.592,848.536,813.237,0.000,0.000,0
1510777824.632,812.894,771.701,847.713,809.125,0.000,0.000,0
1510777824.634,811.592,764.642,846.685,814.402,0.000,0.000,0
1510777824.636,816.596,762.517,847.165,817.555,0.000,0.000,0
1510777824.638,812.209,756.554,841.133,817.555,0.000,0.000,0
1510777824.640,809.536,758.610,839.625,809.125,0.000,0.000,0
1510777824.642,813.374,771.976,842.915,813.306,0.000,0.000,0
1510777824.644,814.608,776.636,840.105,817.418,0.000,0.000,0
1510777824.646,819.337,775.060,839.351,823.792,0.000,0.000,0
1510777824.648,827.014,774.649,838.049,834.485,0.000,0.000,0
1510777824.650,822.353,774.923,839.351,835.033,0.000,0.000,0
1510777824.652,821.325,775.403,840.174,834.142,0.000,0.000,0
1510777824.654,825.780,774.032,840.379,834.485,0.000,0.000,0
1510777824.656,829.002,776.568,842.024,837.843,0.000,0.000,0
1510777824.658,830.098,775.745,841.750,841.065,0.000,0.000,0
1510777824.660,828.727,773.895,840.722,838.392,0.000,0.000,0
1510777824.662,821.736,769.782,840.174,828.453,0.000,0.000,0
1510777824.664,822.147,772.387,840.174,829.755,0.000,0.000,0
1510777824.666,821.668,773.689,844.560,832.840,0.000,0.000,0
1510777824.668,830.647,776.636,845.931,838.940,0.000,0.000,0
1510777824.670,840.516,774.375,847.576,842.778,0.000,0.000,0
1510777824.672,839.009,772.935,845.177,845.040,0.000,0.000,0
1510777824.674,832.840,771.907,842.984,844.149,0.000,0.000,0
1510777824.676,830.167,770.193,843.806,837.569,0.000,0.000,0
1510777824.678,831.812,764.025,844.423,835.924,0.000,0.000,0
1510777824.680,833.799,766.492,840.722,832.977,0.000,0.000,0
1510777824.682,837.638,772.935,839.420,835.033,0.000,0.000,0
1510777824.684,839.077,770.056,836.610,839.900,0.000,0.000,0
1510777824.686,839.488,770.536,834.416,838.734,0.000,0.000,0
1510777824.688,839.420,771.222,836.747,842.230,0.000,0.000,0
1510777824.690,836.884,770.399,839.968,845.246,0.000,0.000,0
1510777824.692,838.666,771.839,841.407,847.508,0.000,0.000,0
1510777824.694,838.529,776.088,843.738,846.685,0.000,0.000,0
1510777824.696,835.170,774.649,838.734,839.694,0.000,0.000,0
1510777824.698,837.432,773.278,841.682,838.666,0.000,0.000,0
1510777824.700,843.052,776.911,844.972,837.089,0.000,0.000,0
1510777824.702,842.093,781.091,842.161,832.154,0.000,0.000,0
1510777824.704,832.840,777.939,841.476,831.949,0.000,0.000,0
1510777824.706,833.525,777.048,840.037,836.473,0.000,0.000,0
1510777824.708,836.678,776.157,840.859,841.476,0.000,0.000,0
1510777824.710,838.529,777.664,843.532,844.355,0.000,0.000,0
1510777824.712,834.005,775.677,841.682,842.298,0.000,0.000,0
1510777824.714,831.400,771.701,843.052,842.024,0.000,0.000,0
1510777824.716,829.002,771.427,841.133,844.629,0.000,0.000,0
1510777824.718,825.506,773.895,841.545,841.819,0.000,0.000,0
1510777824.720,827.905,775.677,841.750,837.226,0.000,0.000,0
1510777824.722,832.429,776.842,842.778,837.980,0.000,0.000,0
1510777824.724,839.831,777.116,843.327,846.548,0.000,0.000,0
1510777824.726,839.831,778.418,845.246,845.520,0.000,0.000,0
1510777824.728,840.242,776.842,844.218,842.778,0.000,0.000,0
1510777824.730,843.395,772.798,840.996,837.843,0.000,0.000,0
1510777824.732,850.729,772.181,839.009,850.729,0.000,0.000,0
1510777824.734,845.520,771.839,837.226,855.047,0.000,0.000,0
1510777824.736,838.323,773.552,832.840,848.878,0.000,0.000,0
1510777824.738,840.928,778.144,835.376,845.177,0.000,0.000,0
1510777824.740,842.915,788.974,840.791,841.819,0.000,0.000,0
1510777824.742,841.750,791.030,844.218,838.529,0.000,0.000,0
1510777824.744,838.529,783.970,843.738,835.513,0.000,0.000,0
1510777824.746,839.625,781.434,841.133,835.719,0.000,0.000,0
1510777824.748,840.311,780.954,837.432,838.186,0.000,0.000,0
1510777824.750,836.335,778.007,836.130,839.557,0.000,0.000,0
1510777824.752,834.965,777.733,837.364,844.697,0.000,0.000,0
1510777824.754,834.759,780.475,836.267,845.863,0.000,0.000,0
1510777824.756,839.625,784.656,837.775,847.782,0.000,0.000,0
1510777824.758,841.065,783.970,837.569,841.202,0.000,0.000,0
1510777824.760,841.819,784.244,838.871,836.198,0.000,0.000,0
1510777824.762,839.077,781.708,837.775,829.413,0.000,0.000,0
1510777824.764,835.993,779.378,837.089,830.167,0.000,0.000,0
1510777824.766,836.747,779.035,837.226,833.799,0.000,0.000,0
1510777824.767,836.747,774.786,837.158,841.065,0.000,0.000,0
1510777824.769,838.666,768.000,837.089,846.891,0.000,0.000,0
1510777824.771,840.585,765.875,837.432,847.850,0.000,0.000,0
1510777824.773,838.529,769.851,841.339,855.184,0.000,0.000,0
1510777824.775,843.738,774.786,844.081,853.608,0.000,0.000,0
1510777824.777,845.863,777.527,841.956,846.822,0.000,0.000,0
1510777824.779,835.033,777.664,837.912,834.211,0.000,0.000,0
1510777824.781,830.304,775.951,838.666,834.896,0.000,0.000,0
1510777824.783,835.170,776.499,841.682,842.367,0.000,0.000,0
1510777824.785,842.024,779.241,841.407,844.492,0.000,0.000,0
1510777824.787,846.617,780.612,839.831,846.342,0.000,0.000,0
1510777824.789,845.931,778.624,842.710,860.393,0.000,0.000,0
1510777824.791,848.330,774.237,846.411,858.680,0.000,0.000,0
1510777824.793,848.673,776.157,845.520,855.801,0.000,0.000,0
1510777824.795,846.479,780.817,844.218,846.548,0.000,0.000,0
1510777824.797,852.991,786.575,843.875,843.052,0.000,0.000,0
1510777824.799,853.128,787.603,845.040,850.798,0.000,0.000,0
1510777824.801,843.121,782.874,839.283,844.972,0.000,0.000,0
1510777824.803,840.242,781.366,839.077,843.052,0.000,0.000,0
1510777824.805,848.399,780.063,841.682,843.943,0.000,0.000,0
1510777824.807,849.769,782.325,840.654,844.560,0.000,0.000,0
1510777824.809,848.193,780.749,842.230,846.342,0.000,0.000,0
1510777824.811,842.847,778.761,845.246,844.697,0.000,0.000,0
1510777824.813,841.202,776.842,842.367,842.298,0.000,0.000,0
1510777824.815,843.875,775.814,841.750,845.177,0.000,0.000,0
1510777824.817,840.654,771.770,842.778,847.576,0.000,0.000,0
1510777824.819,834.896,771.907,843.532,844.697,0.000,0.000,0
1510777824.821,834.279,774.786,841.545,838.049,0.000,0.000,0
1510777824.823,838.460,777.048,840.996,841.545,0.000,0.000,0
1510777824.825,836.130,776.705,840.654,838.666,0.000,0.000,0
1510777824.827,839.351,774.169,840.654,838.117,0.000,0.000,0
1510777824.829,840.928,777.870,841.613,842.573,0.000,0.000,0
1510777824.831,842.024,778.967,840.859,846.205,0.000,0.000,0
1510777824.833,843.532,776.705,841.613,847.508,0.000,0.000,0
1510777824.835,848.673,777.664,844.355,849.495,0.000,0.000,0
1510777824.837,854.156,781.777,846.959,850.523,0.000,0.000,0
1510777824.839,845.863,778.830,841.613,839.625,0.000,0.000,0
1510777824.841,844.012,772.798,842.573,838.117,0.000,0.000,0
1510777824.843,842.847,774.512,844.218,837.295,0.000,0.000,0
1510777824.845,846.891,776.842,842.573,839.351,0.000,0.000,0
1510777824.847,847.645,781.366,842.778,842.024,0.000,0.000,0
1510777824.849,844.355,779.789,841.407,843.738,0.000,0.000,0
1510777824.851,844.218,778.555,845.520,852.443,0.000,0.000,0
1510777824.853,841.682,778.898,846.000,852.648,0.000,0.000,0
1510777824.855,844.012,782.531,845.177,855.184,0.000,0.000,0
1510777824.857,850.523,783.285,843.601,855.321,0.000,0.000,0
1510777824.859,850.866,779.926,845.383,844.286,0.000,0.000,0
1510777824.861,842.298,776.773,847.302,836.747,0.000,0.000,0
1510777824.863,830.167,772.181,846.617,829.550,0.000,0.000,0
1510777824.865,824.204,768.549,848.947,830.852,0.000,0.000,0
1510777824.867,827.357,773.072,847.028,833.251,0.000,0.000,0
1510777824.869,834.074,780.886,844.423,834.553,0.000,0.000,0
1510777824.871,839.900,784.656,844.560,838.597,0.000,0.000,0
1510777824.873,841.476,784.998,845.109,839.694,0.000,0.000,0
1510777824.875,840.516,784.244,848.536,836.884,0.000,0.000,0
1510777824.877,829.755,783.902,848.673,829.755,0.000,0.000,0
1510777824.879,812.346,781.571,845.246,813.032,0.000,0.000,0
1510777824.881,813.169,782.394,844.766,808.645,0.000,0.000,0
1510777824.883,819.954,781.571,849.153,817.213,0.000,0.000,0
1510777824.885,826.603,777.185,848.673,825.232,0.000,0.000,0
1510777824.887,826.808,780.200,846.342,827.631,0.000,0.000,0
1510777824.889,823.587,783.422,846.822,822.901,0.000,0.000,0
1510777824.891,823.930,783.833,847.645,825.986,0.000,0.000,0
1510777824.893,828.727,783.696,849.427,833.320,0.000,0.000,0
1510777824.895,831.263,783.765,850.318,840.379,0.000,0.000,0
1510777824.897,825.986,783.285,851.552,834.965,0.000,0.000,0
1510777824.899,822.627,786.438,851.414,823.107,0.000,0.000,0
1510777824.901,818.309,783.216,846.754,815.979,0.000,0.000,0
1510777824.903,817.829,779.789,843.875,814.402,0.000,0.000,0
1510777824.905,822.627,779.858,841.750,820.503,0.000,0.000,0
1510777824.907,827.699,778.624,842.641,830.167,0.000,0.000,0
1510777824.909,826.534,776.842,844.834,828.590,0.000,0.000,0
1510777824.911,826.191,777.870,845.588,830.372,0.000,0.000,0
1510777824.913,822.764,778.487,845.863,828.727,0.000,0.000,0
1510777824.915,830.647,778.487,846.754,832.771,0.000,0.000,0
1510777824.917,827.905,779.515,843.669,829.961,0.000,0.000,0
1510777824.919,820.365,782.325,844.286,828.316,0.000,0.000,0
1510777824.921,820.297,786.917,846.137,828.248,0.000,0.000,0
1510777824.923,826.260,789.796,846.959,829.139,0.000,0.000,0
1510777824.925,829.413,784.930,847.850,831.469,0.000,0.000,0
1510777824.927,830.647,783.696,845.588,829.344,0.000,0.000,0
1510777824.929,829.824,784.724,847.028,830.921,0.000,0.000,0
1510777824.931,832.566,786.164,850.318,838.940,0.000,0.000,0
1510777824.933,835.787,786.986,851.552,843.943,0.000,0.000,0
1510777824.935,833.388,785.889,850.592,843.121,0.000,0.000,0
1510777824.937,830.852,785.615,852.168,841.682,0.000,0.000,0
1510777824.939,831.538,787.192,850.112,843.327,0.000,0.000,0
1510777824.941,825.986,788.974,845.314,835.307,0.000,0.000,0
1510777824.943,816.870,784.724,839.557,820.708,0.000,0.000,0
1510777824.945,820.160,779.309,840.037,820.571,0.000,0.000,0
1510777824.947,832.840,777.939,840.654,836.678,0.000,0.000,0
1510777824.949,836.541,778.487,845.383,839.351,0.000,0.000,0
1510777824.951,837.501,779.652,847.713,839.283,0.000,0.000,0
1510777824.953,835.170,780.954,847.165,837.843,0.000,0.000,0
1510777824.955,832.977,785.135,845.863,838.597,0.000,0.000,0
1510777824.957,832.634,783.216,842.504,841.613,0.000,0.000,0
1510777824.959,832.977,778.418,843.464,837.775,0.000,0.000,0
1510777824.961,828.864,777.116,845.931,829.481,0.000,0.000,0
1510777824.963,828.590,778.624,842.641,827.288,0.000,0.000,0
1510777824.965,829.344,782.805,845.177,832.223,0.000,0.000,0
1510777824.967,838.871,785.478,846.959,840.996,0.000,0.000,0
1510777824.969,846.068,790.961,847.302,846.411,0.000,0.000,0
1510777824.971,843.806,790.619,848.262,845.520,0.000,0.000,0
1510777824.973,845.177,791.236,849.084,846.479,0.000,0.000,0
1510777824.975,839.694,792.401,852.305,848.193,0.000,0.000,0
1510777824.977,832.566,788.562,848.193,837.089,0.000,0.000,0
1510777824.979,835.924,786.712,847.096,834.965,0.000,0.000,0
1510777824.981,836.678,785.615,846.000,840.791,0.000,0.000,0
1510777824.983,830.989,787.740,842.230,833.388,0.000,0.000,0
1510777824.985,828.933,790.070,843.121,829.481,0.000,0.000,0
1510777824.987,830.921,785.478,847.096,832.703,0.000,0.000,0
1510777824.989,837.843,787.809,848.262,838.597,0.000,0.000,0
1510777824.991,843.190,788.768,847.302,844.560,0.000,0.000,0
1510777824.993,841.956,787.260,847.508,845.383,0.000,0.000,0
1510777824.995,838.186,786.780,849.906,842.915,0.000,0.000,0
1510777824.997,836.815,789.042,851.072,837.569,0.000,0.000,0
1510777824.999,836.404,790.619,851.140,834.828,0.000,0.000,0
1510777825.001,840.379,788.631,853.334,840.928,0.000,0.000,0
1510777825.003,840.105,786.643,850.729,842.298,0.000,0.000,0
1510777825.005,832.429,787.809,845.520,834.485,0.000,0.000,0
1510777825.007,837.775,784.930,843.190,838.323,0.000,0.000,0
1510777825.009,835.581,786.575,844.492,831.949,0.000,0.000,0
1510777825.011,838.186,787.192,845.588,837.775,0.000,0.000,0
1510777825.013,843.121,786.849,845.931,840.037,0.000,0.000,0
1510777825.015,852.168,788.083,843.806,842.093,0.000,0.000,0
1510777825.017,849.975,788.220,845.931,842.024,0.000,0.000,0
1510777825.019,846.754,786.643,848.399,839.009,0.000,0.000,0
1510777825.021,839.420,784.107,849.153,836.541,0.000,0.000,0
1510777825.023,836.130,782.325,849.016,838.323,0.000,0.000,0
1510777825.025,832.634,782.257,848.741,835.444,0.000,0.000,0
1510777825.027,832.703,782.257,846.411,831.332,0.000,0.000,0
1510777825.029,830.647,782.120,844.560,833.868,0.000,0.000,0
1510777825.031,834.553,783.079,846.959,840.448,0.000,0.000,0
1510777825.033,835.924,785.547,847.919,841.407,0.000,0.000,0
1510777825.035,838.529,782.394,846.822,840.242,0.000,0.000,0
1510777825.037,839.009,782.531,845.863,839.420,0.000,0.000,0
1510777825.039,839.694,783.490,847.165,838.460,0.000,0.000,0
1510777825.041,835.102,783.765,848.399,835.307,0.000,0.000,0
1510777825.043,828.933,783.833,847.713,832.292,0.000,0.000,0
1510777825.045,832.977,784.793,848.947,833.114,0.000,0.000,0
1510777825.047,843.258,782.942,855.116,843.943,0.000,0.000,0
1510777825.049,840.242,778.076,852.237,843.464,0.000,0.000,0
1510777825.051,834.553,776.499,847.370,833.799,0.000,0.000,0
1510777825.053,837.912,776.225,846.617,836.473,0.000,0.000,0
1510777825.055,836.061,778.418,847.919,839.762,0.000,0.000,0
1510777825.057,836.061,776.773,850.592,845.040,0.000,0.000,0
1510777825.059,833.114,776.568,849.701,833.868,0.000,0.000,0
1510777825.061,830.852,775.060,847.508,826.945,0.000,0.000,0
1510777825.063,833.662,778.555,845.863,828.042,0.000,0.000,0
1510777825.065,834.896,778.213,845.657,831.675,0.000,0.000,0
1510777825.067,835.719,779.995,846.617,834.211,0.000,0.000,0
1510777825.069,842.984,785.410,847.370,838.460,0.000,0.000,0
1510777825.071,840.722,785.752,848.604,845.863,0.000,0.000,0
1510777825.073,843.052,783.970,844.423,844.697,0.000,0.000,0
1510777825.075,838.803,782.051,846.274,839.625,0.000,0.000,0
1510777825.077,829.824,780.338,846.548,831.949,0.000,0.000,0
1510777825.079,825.849,777.802,845.314,831.332,0.000,0.000,0
1510777825.081,832.566,779.995,844.972,832.566,0.000,0.000,0
1510777825.083,833.388,777.390,842.298,827.219,0.000,0.000,0
1510777825.085,837.569,777.322,843.943,836.747,0.000,0.000,0
1510777825.087,835.719,776.705,846.754,840.311,0.000,0.000,0
1510777825.089,837.638,778.418,851.277,844.081,0.000,0.000,0
1510777825.091,833.731,780.680,850.798,839.009,0.000,0.000,0
1510777825.093,831.469,783.011,849.564,837.775,0.000,0.000,0
1510777825.095,833.936,788.288,847.508,837.980,0.000,0.000,0
1510777825.097,840.311,788.220,849.495,841.270,0.000,0.000,0
1510777825.099,847.370,785.341,852.922,848.604,0.000,0.000,0
1510777825.101,846.617,786.712,850.523,851.620,0.000,0.000,0
1510777825.103,847.713,789.385,848.262,854.636,0.000,0.000,0
1510777825.105,845.520,793.772,844.903,846.274,0.000,0.000,0
1510777825.107,837.843,795.759,842.230,836.061,0.000,0.000,0
1510777825.109,829.618,794.526,843.121,828.933,0.000,0.000,0
1510777825.111,827.357,793.086,844.766,825.780,0.000,0.000,0
1510777825.113,837.432,790.756,846.685,833.388,0.000,0.000,0
1510777825.115,846.000,786.712,847.782,845.451,0.000,0.000,0
1510777825.117,844.766,786.780,845.383,847.782,0.000,0.000,0
1510777825.119,840.585,789.453,840.859,842.915,0.000,0.000,0
1510777825.121,838.117,793.018,838.803,834.553,0.000,0.000,0
1510777825.123,838.117,788.631,840.722,827.973,0.000,0.000,0
1510777825.125,839.283,786.849,842.504,836.267,0.000,0.000,0
1510777825.127,839.351,786.301,843.190,839.900,0.000,0.000,0
1510777825.129,842.778,790.482,841.065,840.585,0.000,0.000,0
1510777825.131,847.850,792.538,842.847,844.218,0.000,0.000,0
1510777825.133,846.959,792.606,843.190,844.081,0.000,0.000,0
1510777825.135,850.044,792.127,841.682,844.903,0.000,0.000,0
1510777825.137,846.274,789.591,840.791,841.202,0.000,0.000,0
1510777825.139,843.395,794.388,847.165,839.146,0.000,0.000,0
1510777825.141,839.077,791.373,846.891,829.824,0.000,0.000,0
1510777825.143,840.105,784.450,844.218,830.647,0.000,0.000,0
1510777825.145,841.545,780.749,842.298,832.771,0.000,0.000,0
1510777825.147,842.710,785.889,839.694,839.009,0.000,0.000,0
1510777825.149,835.033,788.768,836.678,838.117,0.000,0.000,0
1510777825.151,830.989,789.659,836.884,836.473,0.000,0.000,0
1510777825.153,837.638,786.164,837.706,844.286,0.000,0.000,0
1510777825.155,841.819,786.780,838.392,845.726,0.000,0.000,0
1510777825.157,847.165,787.809,837.089,844.012,0.000,0.000,0
1510777825.159,843.395,789.248,838.871,835.102,0.000,0.000,0
1510777825.161,843.052,789.933,839.900,825.300,0.000,0.000,0
1510777825.163,846.411,792.264,840.037,825.163,0.000,0.000,0
1510777825.165,845.109,791.921,837.432,828.179,0.000,0.000,0
1510777825.167,844.903,791.030,836.884,835.856,0.000,0.000,0
1510777825.169,844.903,791.030,836.404,838.392,0.000,0.000,0
1510777825.171,847.576,786.780,836.473,841.887,0.000,0.000,0
1510777825.173,847.713,788.494,838.529,843.738,0.000,0.000,0
1510777825.175,846.617,791.852,836.952,841.339,0.000,0.000,0
1510777825.177,839.968,789.796,838.049,834.553,0.000,0.000,0
1510777825.179,838.803,787.877,837.843,834.965,0.000,0.000,0
1510777825.181,851.552,789.728,837.226,839.009,0.000,0.000,0
1510777825.183,858.406,792.401,837.089,841.545,0.000,0.000,0
1510777825.185,850.866,794.526,833.662,837.364,0.000,0.000,0
1510777825.187,844.149,797.130,833.799,840.448,0.000,0.000,0
1510777825.189,840.242,791.715,831.880,838.803,0.000,0.000,0
1510777825.191,845.451,791.441,832.634,841.887,0.000,0.000,0
1510777825.193,847.439,791.852,834.348,842.093,0.000,0.000,0
1510777825.195,847.096,794.663,835.787,844.560,0.000,0.000,0
1510777825.197,844.834,794.388,838.186,844.629,0.000,0.000,0
1510777825.199,846.617,792.264,836.952,841.750,0.000,0.000,0
1510777825.201,847.096,792.195,839.283,839.009,0.000,0.000,0
1510777825.203,846.822,791.852,838.803,834.279,0.000,0.000,0
1510777825.205,854.362,794.868,838.597,837.912,0.000,0.000,0
1510777825.207,852.168,795.691,837.158,840.174,0.000,0.000,0
1510777825.209,847.439,794.046,836.404,836.473,0.000,0.000,0
1510777825.211,845.177,791.715,836.061,834.348,0.000,0.000,0
1510777825.213,850.249,793.909,840.516,842.161,0.000,0.000,0
1510777825.215,854.567,794.937,841.682,842.230,0.000,0.000,0
1510777825.217,847.713,793.840,838.734,837.226,0.000,0.000,0
1510777825.219,840.037,793.360,834.965,830.715,0.000,0.000,0
1510777825.221,837.569,792.538,831.949,828.453,0.000,0.000,0
1510777825.223,838.871,787.740,834.622,834.279,0.000,0.000,0
1510777825.225,840.037,782.120,835.307,837.364,0.000,0.000,0
1510777825.227,837.501,783.353,834.759,835.719,0.000,0.000,0
1510777825.229,844.697,789.728,833.320,839.762,0.000,0.000,0
1510777825.231,846.617,789.111,838.323,843.052,0.000,0.000,0
1510777825.233,840.242,794.046,839.214,844.492,0.000,0.000,0
1510777825.235,840.996,796.170,839.420,847.302,0.000,0.000,0
1510777825.237,843.601,793.703,839.557,848.673,0.000,0.000,0
1510777825.239,846.479,790.482,836.678,845.931,0.000,0.000,0
1510777825.241,852.580,791.441,838.323,841.202,0.000,0.000,0
1510777825.243,846.959,793.018,838.666,830.852,0.000,0.000,0
1510777825.245,850.249,794.868,838.666,838.871,0.000,0.000,0
1510777825.247,850.798,794.663,839.009,838.255,0.000,0.000,0
1510777825.249,849.290,793.840,839.488,838.323,0.000,0.000,0
1510777825.251,845.657,793.292,840.791,847.713,0.000,0.000,0
1510777825.253,847.028,791.921,838.597,850.935,0.000,0.000,0
1510777825.255,851.963,796.856,840.174,851.277,0.000,0.000,0
1510777825.257,849.838,796.924,840.928,843.464,0.000,0.000,0
1510777825.259,842.641,792.881,841.750,837.912,0.000,0.000,0
1510777825.261,835.513,791.304,842.230,832.703,0.000,0.000,0
1510777825.263,837.501,790.207,842.161,835.307,0.000,0.000,0
1510777825.265,843.052,791.784,840.242,840.037,0.000,0.000,0
1510777825.267,843.121,791.921,837.089,841.202,0.000,0.000,0
1510777825.269,841.202,794.046,837.295,839.900,0.000,0.000,0
1510777825.271,841.545,793.977,838.529,844.218,0.000,0.000,0
1510777825.273,842.573,793.360,838.186,847.439,0.000,0.000,0
1510777825.275,840.859,794.388,839.488,848.330,0.000,0.000,0
1510777825.277,836.198,793.977,838.529,839.900,0.000,0.000,0
1510777825.279,835.856,788.768,838.117,834.211,0.000,0.000,0
1510777825.281,837.912,787.123,841.545,836.404,0.000,0.000,0
1510777825.283,843.052,789.796,841.476,835.170,0.000,0.000,0
1510777825.285,843.806,790.550,840.516,834.896,0.000,0.000,0
1510777825.287,840.791,791.030,841.202,838.186,0.000,0.000,0
1510777825.289,846.274,793.566,844.355,842.915,0.000,0.000,0
1510777825.291,847.713,794.868,844.218,839.831,0.000,0.000,0
1510777825.293,847.302,793.497,842.710,840.516,0.000,0.000,0
1510777825.295,847.576,797.473,845.040,841.613,0.000,0.000,0
1510777825.297,842.161,799.940,841.887,838.871,0.000,0.000,0
1510777825.299,841.270,802.682,839.214,836.541,0.000,0.000,0
1510777825.301,840.174,800.009,839.214,840.105,0.000,0.000,0
1510777825.303,837.569,798.981,838.255,837.706,0.000,0.000,0
1510777825.305,836.267,794.046,839.625,840.448,0.000,0.000,0
1510777825.307,842.367,794.937,841.613,850.729,0.000,0.000,0
1510777825.309,843.395,794.594,843.464,848.193,0.000,0.000,0
1510777825.311,842.298,794.388,843.943,848.262,0.000,0.000,0
1510777825.313,841.613,799.255,843.943,847.645,0.000,0.000,0
1510777825.315,840.791,798.021,843.943,845.040,0.000,0.000,0
1510777825.317,841.887,793.018,843.601,842.230,0.000,0.000,0
1510777825.319,845.383,792.743,844.560,843.738,0.000,0.000,0
1510777825.321,849.290,795.211,847.782,846.685,0.000,0.000,0
1510777825.323,846.479,795.759,847.302,834.142,0.000,0.000,0
1510777825.325,846.891,800.831,848.330,836.130,0.000,0.000,0
1510777825.327,846.274,801.448,848.262,838.392,0.000,0.000,0
1510777825.329,850.866,801.791,848.124,844.972,0.000,0.000,0
1510777825.331,852.854,801.791,848.604,854.019,0.000,0.000,0
1510777825.333,851.963,802.065,849.769,856.555,0.000,0.000,0
1510777825.335,847.987,799.529,848.673,853.128,0.000,0.000,0
1510777825.337,841.202,798.295,847.233,844.972,0.000,0.000,0
1510777825.339,838.940,799.118,849.290,838.460,0.000,0.000,0
1510777825.341,842.024,800.831,851.140,839.146,0.000,0.000,0
1510777825.343,849.564,801.517,852.305,845.794,0.000,0.000,0
1510777825.345,850.112,801.037,852.717,839.900,0.000,0.000,0
1510777825.347,847.645,795.828,851.414,842.847,0.000,0.000,0
1510777825.349,845.383,798.501,848.878,843.052,0.000,0.000,0
1510777825.351,838.940,802.956,846.274,840.311,0.000,0.000,0
1510777825.353,839.009,801.174,846.685,842.504,0.000,0.000,0
1510777825.355,842.847,799.872,846.274,842.161,0.000,0.000,0
1510777825.357,842.161,802.065,846.205,836.404,0.000,0.000,0
1510777825.359,842.641,799.598,844.903,833.045,0.000,0.000,0
1510777825.361,849.290,794.320,846.068,839.762,0.000,0.000,0
1510777825.363,845.931,790.207,843.464,837.980,0.000,0.000,0
1510777825.365,844.423,791.373,843.875,836.267,0.000,0.000,0
1510777825.367,846.274,795.211,845.931,842.573,0.000,0.000,0
1510777825.369,843.121,797.267,848.056,844.834,0.000,0.000,0
1510777825.371,841.545,795.965,848.124,848.262,0.000,0.000,0
1510777825.373,842.984,794.251,847.508,846.891,0.000,0.000,1
1510777825.375,848.193,795.828,846.548,848.124,0.000,0.000,0
1510777825.377,848.467,799.323,847.302,848.056,0.000,0.000,0
1510777825.379,841.407,800.283,845.040,830.852,0.000,0.000,0
1510777825.381,842.436,801.928,846.822,830.235,0.000,0.000,0
1510777825.383,840.791,797.610,848.536,830.784,0.000,0.000,0
1510777825.385,839.214,793.703,847.439,832.977,0.000,0.000,0
1510777825.387,841.407,792.881,845.588,838.392,0.000,0.000,0
1510777825.389,842.710,796.102,848.399,840.791,0.000,0.000,0
1510777825.391,847.439,801.105,851.072,846.548,0.000,0.000,0
1510777825.393,842.367,796.445,848.056,840.516,0.000,0.000,0
1510777825.395,843.875,792.401,844.903,840.654,0.000,0.000,0
1510777825.397,849.427,795.485,846.137,847.028,0.000,0.000,0
1510777825.399,849.838,794.457,848.399,843.052,0.000,0.000,0
1510777825.401,848.810,794.868,850.044,840.105,0.000,0.000,0
1510777825.403,844.697,797.953,850.660,838.529,0.000,0.000,0
1510777825.405,846.548,798.981,850.592,842.161,0.000,0.000,0
1510777825.407,846.754,798.295,850.386,843.875,0.000,0.000,0
1510777825.409,846.137,798.364,851.072,844.697,0.000,0.000,0
1510777825.411,841.202,797.336,846.754,837.432,0.000,0.000,0
1510777825.413,845.383,794.320,846.822,840.996,0.000,0.000,0
1510777825.415,844.697,792.538,848.193,847.165,0.000,0.000,0
1510777825.417,841.956,792.401,847.782,846.617,0.000,0.000,0
1510777825.419,835.376,790.276,847.233,836.747,0.000,0.000,0
1510777825.421,831.880,792.332,847.439,828.659,0.000,0.000,0
1510777825.423,835.376,793.634,845.794,825.575,0.000,0.000,0
1510777825.425,837.569,797.199,843.395,821.942,0.000,0.000,0
1510777825.427,835.856,798.501,842.093,824.683,0.000,0.000,0
1510777825.429,840.996,794.594,844.492,833.320,0.000,0.000,0
1510777825.431,846.479,797.678,846.891,844.149,0.000,0.000,0
1510777825.432,849.769,799.049,847.987,850.660,0.000,0.000,0
1510777825.434,851.689,797.473,848.536,848.467,0.000,0.000,0
1510777825.436,855.390,796.445,849.564,846.068,0.000,0.000,0
1510777825.438,854.704,792.881,851.689,844.286,0.000,0.000,0
1510777825.440,850.044,794.320,851.483,841.545,0.000,0.000,0
1510777825.442,846.822,793.772,850.935,835.719,0.000,0.000,0
1510777825.444,848.947,793.429,853.196,839.420,0.000,0.000,0
1510777825.446,851.072,794.251,856.486,837.912,0.000,0.000,0
1510777825.448,851.826,794.457,858.406,841.065,0.000,0.000,0
1510777825.450,851.414,796.856,857.035,846.822,0.000,0.000,0
1510777825.452,849.016,800.763,851.757,848.947,0.000,0.000,0
1510777825.454,849.290,803.162,851.346,847.439,0.000,0.000,0
1510777825.456,847.713,800.146,848.536,836.541,0.000,0.000,0
1510777825.458,844.834,797.336,847.439,833.936,0.000,0.000,0
1510777825.460,839.831,792.881,848.673,829.413,0.000,0.000,0
1510777825.462,848.056,792.949,849.016,837.021,0.000,0.000,0
1510777825.464,850.523,795.279,849.838,840.585,0.000,0.000,0
1510777825.466,848.399,797.404,850.112,841.133,0.000,0.000,0
1510777825.468,853.539,801.037,850.112,846.411,0.000,0.000,0
1510777825.470,858.474,797.953,851.414,849.358,0.000,0.000,0
1510777825.472,858.406,799.803,853.128,849.701,0.000,0.000,0
1510777825.474,858.543,801.654,852.922,851.689,0.000,0.000,0
1510777825.476,848.604,800.763,850.386,842.230,0.000,0.000,0
1510777825.478,844.149,796.033,847.302,836.610,0.000,0.000,0
1510777825.480,848.056,793.497,848.193,836.473,0.000,0.000,0
1510777825.482,855.184,795.554,845.657,835.993,0.000,0.000,0
1510777825.484,851.003,795.005,846.137,837.775,0.000,0.000,0
1510777825.486,849.358,791.236,849.975,846.685,0.000,0.000,0
1510777825.488,851.757,794.183,851.963,853.196,0.000,0.000,0
1510777825.490,845.588,794.388,851.757,846.822,0.000,0.000,0
1510777825.492,840.516,794.868,850.866,846.205,0.000,0.000,0
1510777825.494,835.993,790.070,847.713,837.089,0.000,0.000,0
1510777825.496,847.096,786.369,849.564,840.996,0.000,0.000,0
1510777825.498,851.072,788.425,851.483,842.436,0.000,0.000,0
1510777825.500,847.850,789.042,851.140,841.065,0.000,0.000,0
1510777825.502,846.754,789.728,850.592,839.488,0.000,0.000,0
1510777825.504,850.935,790.413,853.539,837.912,0.000,0.000,0
1510777825.506,855.664,794.046,855.801,843.052,0.000,0.000,0
1510777825.508,853.402,797.473,853.196,840.996,0.000,0.000,0
1510777825.510,851.209,797.953,850.249,839.420,0.000,0.000,0
1510777825.512,852.305,797.815,851.552,843.738,0.000,0.000,0
1510777825.514,848.330,797.130,852.031,848.124,0.000,0.000,0
1510777825.516,841.202,794.731,850.249,845.657,0.000,0.000,0
1510777825.518,836.541,794.731,849.153,842.024,0.000,0.000,0
1510777825.520,838.323,797.541,847.987,838.323,0.000,0.000,0
1510777825.522,846.205,798.981,852.237,843.121,0.000,0.000,0
1510777825.524,846.548,798.295,852.100,839.968,0.000,0.000,0
1510777825.526,844.834,796.033,852.991,838.940,0.000,0.000,0
1510777825.528,848.467,796.719,853.402,840.311,0.000,0.000,0
1510777825.530,850.044,800.283,853.950,848.330,0.000,0.000,0
1510777825.532,846.891,797.953,851.963,856.281,0.000,0.000,0
1510777825.534,851.346,798.090,854.910,866.082,0.000,0.000,0
1510777825.536,849.769,793.909,857.240,859.982,0.000,0.000,0
1510777825.538,850.318,789.933,854.910,850.455,0.000,0.000,0
1510777825.540,844.081,787.534,848.947,834.211,0.000,0.000,0
1510777825.542,843.601,785.547,848.193,832.566,0.000,0.000,0
1510777825.544,843.190,785.958,848.878,830.921,0.000,0.000,0
1510777825.546,842.436,782.188,849.153,838.255,0.000,0.000,0
1510777825.548,842.436,783.285,849.358,839.146,0.000,0.000,0
1510777825.550,847.302,790.207,850.523,843.464,0.000,0.000,0
1510777825.552,848.673,794.663,851.757,848.673,0.000,0.000,0
1510777825.554,849.221,795.211,852.580,848.604,0.000,0.000,0
1510777825.556,856.144,799.803,855.527,852.374,0.000,0.000,0
1510777825.558,847.370,799.323,852.305,842.778,0.000,0.000,0
1510777825.560,842.984,798.569,849.632,835.033,0.000,0.000,0
1510777825.562,847.508,800.968,849.358,836.267,0.000,0.000,0
1510777825.564,845.863,798.364,848.947,839.283,0.000,0.000,0
1510777825.566,844.423,795.828,849.701,841.270,0.000,0.000,0
1510777825.568,846.754,796.582,849.427,843.121,0.000,0.000,0
1510777825.570,849.769,796.513,849.016,846.137,0.000,0.000,0
1510777825.572,851.072,797.404,849.769,845.109,0.000,0.000,0
1510777825.574,848.262,796.445,850.386,844.012,0.000,0.000,0
1510777825.576,845.246,795.896,852.717,842.641,0.000,0.000,0
1510777825.578,842.504,793.223,850.523,832.566,0.000,0.000,0
1510777825.580,839.488,793.497,849.084,829.481,0.000,0.000,0
1510777825.582,832.086,792.881,846.685,825.506,0.000,0.000,0
1510777825.584,830.784,789.179,845.520,825.575,0.000,0.000,0
1510777825.586,835.993,787.260,847.370,832.771,0.000,0.000,0
1510777825.588,840.859,789.111,850.592,837.021,0.000,0.000,0
1510777825.590,846.342,789.316,850.386,836.747,0.000,0.000,0
1510777825.592,847.233,785.615,849.084,834.828,0.000,0.000,0
1510777825.594,839.077,784.107,849.358,836.335,0.000,0.000,0
1510777825.596,830.784,786.232,846.959,834.279,0.000,0.000,0
1510777825.598,834.896,790.619,849.838,834.553,0.000,0.000,0
1510777825.600,838.940,795.417,852.717,835.581,0.000,0.000,0
1510777825.602,840.311,799.323,852.648,836.267,0.000,0.000,0
1510777825.604,844.560,796.787,848.193,838.117,0.000,0.000,0
1510777825.606,845.314,797.884,849.975,836.267,0.000,0.000,0
1510777825.608,848.741,798.912,850.318,831.675,0.000,0.000,0
1510777825.610,854.499,802.819,850.798,837.638,0.000,0.000,0
1510777825.612,848.330,800.557,847.165,837.021,0.000,0.000,0
1510777825.614,851.689,802.545,846.617,844.423,0.000,0.000,0
1510777825.616,856.281,803.230,844.766,847.919,0.000,0.000,0
1510777825.618,853.608,799.803,845.383,845.726,0.000,0.000,0
1510777825.620,850.592,797.884,846.685,841.133,0.000,0.000,0
1510777825.622,848.124,797.062,847.576,838.597,0.000,0.000,0
1510777825.624,838.255,794.800,847.782,829.413,0.000,0.000,0
1510777825.626,839.283,795.417,846.205,829.618,0.000,0.000,0
1510777825.628,839.009,796.170,844.355,830.509,0.000,0.000,0
1510777825.630,839.557,795.554,845.863,836.404,0.000,0.000,0
1510777825.632,843.738,794.800,847.370,838.529,0.000,0.000,0
1510777825.634,848.947,797.199,847.302,842.573,0.000,0.000,0
1510777825.636,848.330,796.308,847.439,848.056,0.000,0.000,0
1510777825.638,851.277,794.320,847.508,850.660,0.000,0.000,0
1510777825.640,846.754,789.591,848.673,844.218,0.000,0.000,0
1510777825.642,845.040,791.098,850.318,842.847,0.000,0.000,0
1510777825.644,847.439,796.856,849.632,844.081,0.000,0.000,0
1510777825.646,844.697,799.803,847.370,839.488,0.000,0.000,0
1510777825.648,841.065,798.158,847.028,835.307,0.000,0.000,0
1510777825.650,844.903,794.251,847.508,844.081,0.000,0.000,0
1510777825.652,848.399,796.376,847.919,851.689,0.000,0.000,0
1510777825.654,854.362,798.501,849.084,854.841,0.000,0.000,0
1510777825.656,852.785,795.417,845.040,844.492,0.000,0.000,0
1510777825.658,850.181,795.142,845.588,846.068,0.000,0.000,0
1510777825.660,841.133,794.868,844.423,839.077,0.000,0.000,0
1510777825.662,843.327,795.417,845.794,844.012,0.000,0.000,0
1510777825.664,847.850,791.647,847.850,849.838,0.000,0.000,0
1510777825.666,853.950,790.550,848.741,853.813,0.000,0.000,0
1510777825.668,858.337,794.320,849.906,853.950,0.000,0.000,0
1510777825.670,853.608,795.279,847.713,851.346,0.000,0.000,0
1510777825.672,850.592,797.953,846.548,854.979,0.000,0.000,0
1510777825.674,845.863,798.227,846.617,849.564,0.000,0.000,0
1510777825.676,838.666,792.812,847.302,846.342,0.000,0.000,0
1510777825.678,840.448,789.591,844.149,844.834,0.000,0.000,0
1510777825.680,842.436,791.167,845.794,845.451,0.000,0.000,0
1510777825.682,840.311,793.018,845.520,843.738,0.000,0.000,0
1510777825.684,844.149,795.142,845.726,848.330,0.000,0.000,0
1510777825.686,850.523,797.404,847.987,852.305,0.000,0.000,0
1510777825.688,856.144,798.432,847.850,854.019,0.000,0.000,0
1510777825.690,852.511,798.021,848.604,848.399,0.000,0.000,0
1510777825.692,845.794,799.255,848.536,847.919,0.000,0.000,0
1510777825.694,843.052,800.626,850.455,848.536,0.000,0.000,0
1510777825.696,840.654,793.086,851.826,851.209,0.000,0.000,0
1510777825.698,836.884,796.102,850.729,846.205,0.000,0.000,0
1510777825.700,838.940,798.569,851.277,846.274,0.000,0.000,0
1510777825.702,840.037,796.719,848.878,847.645,0.000,0.000,0
1510777825.704,839.420,795.759,847.370,842.436,0.000,0.000,0
1510777825.706,842.024,795.485,845.657,839.077,0.000,0.000,0
1510777825.708,840.242,792.332,841.750,833.662,0.000,0.000,0
1510777825.710,839.694,791.030,841.613,835.581,0.000,0.000,0
1510777825.712,842.436,793.703,843.738,842.710,0.000,0.000,0
1510777825.714,845.657,792.949,843.875,852.648,0.000,0.000,0
1510777825.716,848.193,792.743,845.177,853.676,0.000,0.000,0
1510777825.718,846.068,794.388,848.399,853.059,0.000,0.000,0
1510777825.720,842.778,795.759,845.726,848.467,0.000,0.000,0
1510777825.722,842.641,796.376,842.298,843.532,0.000,0.000,0
1510777825.724,847.850,794.457,842.847,846.000,0.000,0.000,0
1510777825.726,844.903,791.510,842.367,840.585,0.000,0.000,0
1510777825.728,844.492,793.772,844.218,847.919,0.000,0.000,0
1510777825.730,847.850,794.526,849.838,851.894,0.000,0.000,0
1510777825.732,844.766,793.497,852.511,855.664,0.000,0.000,0
1510777825.734,844.629,797.610,849.427,858.543,0.000,0.000,0
1510777825.736,845.588,801.242,849.153,857.652,0.000,0.000,0
1510777825.738,848.056,803.916,850.318,859.776,0.000,0.000,0
1510777825.740,840.791,800.900,848.536,846.000,0.000,0.000,0
1510777825.742,837.432,801.585,845.314,840.379,0.000,0.000,0
1510777825.744,841.887,798.021,845.794,840.996,0.000,0.000,0
1510777825.746,851.072,796.993,846.205,852.648,0.000,0.000,0
1510777825.748,851.894,795.485,845.040,855.184,0.000,0.000,0
1510777825.750,853.745,795.005,847.713,854.019,0.000,0.000,0
1510777825.752,848.947,796.924,848.604,851.346,0.000,0.000,0
1510777825.754,844.834,800.214,845.726,845.726,0.000,0.000,0
1510777825.756,841.887,801.585,847.233,844.218,0.000,0.000,0
1510777825.758,834.142,801.174,845.726,830.921,0.000,0.000,0
1510777825.760,830.647,801.174,845.109,829.618,0.000,0.000,0
1510777825.762,828.933,797.953,847.850,834.279,0.000,0.000,0
1510777825.764,834.759,797.267,848.056,839.146,0.000,0.000,0
1510777825.766,839.488,798.706,847.370,843.121,0.000,0.000,0
1510777825.768,839.968,800.283,847.782,846.205,0.000,0.000,0
1510777825.770,843.943,801.105,845.726,851.826,0.000,0.000,0
1510777825.772,844.492,799.666,846.000,851.140,0.000,0.000,0
1510777825.774,840.791,799.392,845.040,845.314,0.000,0.000,0
1510777825.776,838.734,795.759,845.794,839.351,0.000,0.000,0
1510777825.778,842.093,793.909,847.508,842.093,0.000,0.000,0
1510777825.780,841.270,790.345,846.000,840.859,0.000,0.000,0
1510777825.782,839.077,793.909,851.277,848.467,0.000,0.000,0
1510777825.784,844.286,799.735,850.592,849.906,0.000,0.000,0
1510777825.786,840.928,801.928,848.947,840.105,0.000,0.000,0
1510777825.788,833.388,799.460,849.290,837.775,0.000,0.000,0
1510777825.790,836.541,798.501,849.495,841.202,0.000,0.000,0
1510777825.792,843.875,796.308,850.112,847.302,0.000,0.000,0
1510777825.794,843.190,799.049,848.330,847.987,0.000,0.000,0
1510777825.796,844.081,799.940,846.411,846.479,0.000,0.000,0
1510777825.798,837.021,800.763,845.040,842.504,0.000,0.000,0
1510777825.800,835.513,801.585,844.492,839.900,0.000,0.000,0
1510777825.802,832.703,802.271,844.766,841.065,0.000,0.000,0
1510777825.804,835.444,805.561,847.782,842.298,0.000,0.000,0
1510777825.806,837.364,801.037,849.221,838.255,0.000,0.000,0
1510777825.808,836.610,792.606,848.467,837.295,0.000,0.000,0
1510777825.810,837.638,796.102,848.604,843.121,0.000,0.000,0
1510777825.812,848.604,798.158,848.810,851.209,0.000,0.000,0
1510777825.814,852.305,797.336,850.866,853.471,0.000,0.000,0
1510777825.816,847.028,797.404,853.882,854.088,0.000,0.000,0
1510777825.818,846.274,798.021,854.773,855.321,0.000,0.000,0
1510777825.820,849.838,799.186,856.486,852.443,0.000,0.000,0
1510777825.822,848.124,800.626,854.567,847.987,0.000,0.000,0
1510777825.824,843.669,799.186,850.386,842.367,0.000,0.000,0
1510777825.826,841.956,797.130,850.249,838.871,0.000,0.000,0
1510777825.828,841.545,795.142,849.632,841.956,0.000,0.000,0
1510777825.830,838.803,794.183,848.741,845.383,0.000,0.000,0
1510777825.832,836.952,793.018,848.878,848.536,0.000,0.000,0
1510777825.834,843.464,796.170,850.318,854.293,0.000,0.000,0
1510777825.836,847.233,797.610,851.620,854.499,0.000,0.000,0
1510777825.838,837.432,796.582,850.523,844.355,0.000,0.000,0
1510777825.840,834.279,798.569,850.249,837.295,0.000,0.000,0
1510777825.842,835.102,799.598,847.850,835.993,0.000,0.000,0
1510777825.844,837.089,798.638,848.604,839.625,0.000,0.000,0
1510777825.846,837.980,797.267,847.850,841.270,0.000,0.000,0
1510777825.848,838.871,795.896,848.124,840.037,0.000,0.000,0
1510777825.850,839.557,795.759,849.290,840.379,0.000,0.000,0
1510777825.852,842.504,796.582,846.548,843.532,0.000,0.000,0
1510777825.854,842.230,795.691,848.193,844.834,0.000,0.000,0
1510777825.856,844.766,797.747,850.181,847.508,0.000,0.000,0
1510777825.858,845.109,796.924,853.128,847.850,0.000,0.000,0
1510777825.860,837.706,796.787,853.128,840.448,0.000,0.000,0
1510777825.862,836.130,801.996,854.499,838.666,0.000,0.000,0
1510777825.864,839.146,807.822,856.075,839.077,0.000,0.000,0
1510777825.866,835.924,809.879,852.922,836.267,0.000,0.000,0
1510777825.868,835.924,807.068,852.168,840.791,0.000,0.000,0
1510777825.870,833.731,794.046,850.798,840.928,0.000,0.000,0
1510777825.872,833.388,791.784,851.963,846.274,0.000,0.000,0
1510777825.874,828.179,791.715,851.209,837.569,0.000,0.000,0
1510777825.876,824.272,794.114,851.620,839.694,0.000,0.000,0
1510777825.878,826.877,799.186,851.963,844.218,0.000,0.000,0
1510777825.880,832.154,802.545,850.112,844.218,0.000,0.000,0
1510777825.882,832.566,803.573,851.072,835.581,0.000,0.000,0
1510777825.884,829.344,803.162,849.906,827.973,0.000,0.000,0
1510777825.886,830.098,800.489,851.757,832.017,0.000,0.000,0
1510777825.888,838.117,801.311,852.922,841.887,0.000,0.000,0
1510777825.890,841.682,801.037,853.196,845.657,0.000,0.000,0
1510777825.892,844.834,802.202,852.374,849.153,0.000,0.000,0
1510777825.894,847.439,803.436,854.293,851.757,0.000,0.000,0
1510777825.896,848.878,803.573,852.648,849.358,0.000,0.000,0
1510777825.898,846.205,805.698,852.648,847.028,0.000,0.000,0
1510777825.900,843.052,807.685,852.922,842.915,0.000,0.000,0
1510777825.902,839.214,804.121,852.785,839.694,0.000,0.000,0
1510777825.904,839.762,798.569,852.305,838.871,0.000,0.000,0
1510777825.906,840.722,792.743,852.648,839.009,0.000,0.000,0
1510777825.908,839.351,793.566,851.140,839.488,0.000,0.000,0
1510777825.910,839.762,802.750,849.564,841.339,0.000,0.000,0
1510777825.912,848.399,809.879,851.003,851.894,0.000,0.000,0
1510777825.914,850.112,808.165,851.826,850.866,0.000,0.000,0
1510777825.916,845.794,804.601,853.608,850.386,0.000,0.000,0
1510777825.918,840.791,803.573,852.031,850.181,0.000,0.000,0
1510777825.920,842.984,802.202,851.757,844.081,0.000,0.000,0
1510777825.922,845.246,801.791,852.580,843.943,0.000,0.000,0
1510777825.924,841.545,802.065,853.128,845.314,0.000,0.000,0
1510777825.926,841.339,802.545,854.841,846.754,0.000,0.000,0
1510777825.928,846.137,793.360,856.349,849.358,0.000,0.000,0
1510777825.930,847.439,793.566,854.430,850.523,0.000,0.000,0
1510777825.932,844.629,797.815,848.673,849.016,0.000,0.000,0
1510777825.934,841.682,800.489,849.153,846.411,0.000,0.000,0
1510777825.936,842.093,802.065,853.471,853.745,0.000,0.000,0
1510777825.938,841.476,805.561,857.377,848.878,0.000,0.000,0
1510777825.940,841.065,807.274,857.720,845.246,0.000,0.000,0
1510777825.942,839.351,805.698,855.116,837.432,0.000,0.000,0
1510777825.944,839.283,803.504,852.305,837.364,0.000,0.000,0
1510777825.946,839.420,802.202,852.717,840.996,0.000,0.000,0
1510777825.948,839.488,801.380,850.798,845.109,0.000,0.000,0
1510777825.950,838.940,801.585,851.826,846.342,0.000,0.000,0
1510777825.952,842.161,800.352,854.636,850.798,0.000,0.000,0
1510777825.954,845.726,803.436,853.676,854.979,0.000,0.000,0
1510777825.956,846.274,804.190,852.511,852.511,0.000,0.000,0
1510777825.958,836.473,800.626,851.277,837.912,0.000,0.000,0
1510777825.960,842.710,799.529,852.168,838.049,0.000,0.000,0
1510777825.962,844.560,795.005,850.729,839.283,0.000,0.000,0
1510777825.964,848.741,792.264,853.128,842.984,0.000,0.000,0
1510777825.966,851.414,792.675,855.801,846.754,0.000,0.000,0
1510777825.968,844.012,796.582,854.156,845.040,0.000,0.000,0
1510777825.970,843.875,802.476,850.455,847.508,0.000,0.000,0
1510777825.972,841.476,802.271,848.056,839.283,0.000,0.000,0
1510777825.974,837.364,802.613,848.536,830.989,0.000,0.000,0
1510777825.976,836.267,802.956,849.084,833.525,0.000,0.000,0
1510777825.978,841.887,804.532,851.209,842.504,0.000,0.000,0
1510777825.980,841.476,802.888,852.168,844.355,0.000,0.000,0
1510777825.982,838.049,798.021,850.660,840.516,0.000,0.000,0
1510777825.984,837.089,797.404,851.277,840.311,0.000,0.000,0
1510777825.986,837.226,801.859,848.330,836.404,0.000,0.000,0
1510777825.988,836.952,807.000,848.947,836.952,0.000,0.000,0
1510777825.990,847.850,805.561,852.648,843.738,0.000,0.000,0
1510777825.992,844.286,802.888,852.511,837.569,0.000,0.000,0
1510777825.994,843.532,800.557,854.293,839.420,0.000,0.000,0
1510777825.996,847.165,802.750,854.636,845.451,0.000,0.000,0
1510777825.998,848.673,801.517,852.580,845.451,0.000,0.000,0
1510777826.000,848.193,801.654,851.414,839.351,0.000,0.000,0
1510777826.002,848.878,801.585,851.003,832.771,0.000,0.000,0
1510777826.004,848.056,800.352,853.471,838.460,0.000,0.000,0
1510777826.006,843.601,800.557,852.991,837.295,0.000,0.000,0
1510777826.008,842.230,797.404,850.935,836.473,0.000,0.000,0
1510777826.010,844.081,796.856,851.072,833.388,0.000,0.000,0
1510777826.012,851.414,799.186,851.414,848.604,0.000,0.000,0
1510777826.014,850.249,800.283,852.785,852.031,0.000,0.000,0
1510777826.016,847.508,800.968,857.103,854.636,0.000,0.000,1
1510777826.018,848.193,801.654,860.051,851.963,0.000,0.000,0
1510777826.020,843.121,801.174,860.119,845.726,0.000,0.000,0
1510777826.022,839.968,799.940,857.720,841.339,0.000,0.000,0
1510777826.024,833.457,797.678,855.321,836.130,0.000,0.000,0
1510777826.026,833.457,802.888,852.648,835.102,0.000,0.000,0
1510777826.028,835.307,805.903,851.963,836.267,0.000,0.000,0
1510777826.030,842.710,806.520,855.527,843.806,0.000,0.000,0
1510777826.032,843.943,804.464,855.801,850.318,0.000,0.000,0
1510777826.034,846.822,804.190,855.184,852.785,0.000,0.000,0
1510777826.036,851.757,803.916,856.349,849.769,0.000,0.000,0
1510777826.038,847.919,803.436,854.499,845.246,0.000,0.000,0
1510777826.040,851.689,804.875,851.894,845.383,0.000,0.000,0
1510777826.042,853.128,804.053,852.717,842.915,0.000,0.000,0
1510777826.044,850.935,803.025,852.100,841.613,0.000,0.000,0
1510777826.046,847.165,803.367,851.414,839.488,0.000,0.000,0
1510777826.048,838.871,800.626,849.358,834.622,0.000,0.000,0
1510777826.050,833.251,792.949,848.741,834.142,0.000,0.000,0
1510777826.052,831.469,795.211,850.044,842.778,0.000,0.000,0
1510777826.054,834.348,801.448,853.128,847.165,0.000,0.000,0
1510777826.056,832.154,804.944,851.620,841.065,0.000,0.000,0
1510777826.058,834.690,804.875,852.374,835.444,0.000,0.000,0
1510777826.060,835.239,803.984,854.362,834.211,0.000,0.000,0
1510777826.062,833.594,802.134,853.059,834.142,0.000,0.000,0
1510777826.064,833.114,803.573,851.483,832.429,0.000,0.000,0
1510777826.066,837.295,805.629,850.592,837.089,0.000,0.000,0
1510777826.068,842.436,803.916,849.632,838.666,0.000,0.000,0
1510777826.070,842.367,796.993,849.838,842.641,0.000,0.000,0
1510777826.072,842.573,795.417,851.277,849.084,0.000,0.000,0
1510777826.074,841.682,796.513,852.991,843.327,0.000,0.000,0
1510777826.076,842.504,801.105,853.813,845.520,0.000,0.000,0
1510777826.078,838.666,803.367,852.031,841.133,0.000,0.000,0
1510777826.080,833.251,804.532,850.181,839.831,0.000,0.000,0
1510777826.082,833.731,799.118,850.249,834.348,0.000,0.000,0
1510777826.084,832.086,801.722,848.810,828.179,0.000,0.000,0
1510777826.086,838.049,806.109,848.947,835.924,0.000,0.000,0
1510777826.088,839.488,802.134,850.044,840.311,0.000,0.000,0
1510777826.090,837.226,799.049,850.935,837.912,0.000,0.000,0
1510777826.092,838.529,799.598,848.056,839.900,0.000,0.000,0
1510777826.094,838.529,801.585,848.262,839.968,0.000,0.000,0
1510777826.096,840.516,802.613,850.318,841.682,0.000,0.000,0
1510777826.097,840.654,805.698,850.318,844.629,0.000,0.000,0
1510777826.099,838.323,805.492,847.576,837.706,0.000,0.000,0
1510777826.101,845.109,810.290,848.947,837.706,0.000,0.000,0
1510777826.103,844.560,807.274,849.906,845.931,0.000,0.000,0
1510777826.105,845.657,803.847,852.511,847.645,0.000,0.000,0
1510777826.107,835.513,801.722,848.536,834.211,0.000,0.000,0
1510777826.109,829.276,801.242,846.822,832.154,0.000,0.000,0
1510777826.111,829.207,801.037,847.713,833.388,0.000,0.000,0
1510777826.113,832.840,801.105,849.221,837.912,0.000,0.000,0
1510777826.115,837.021,803.436,851.003,844.766,0.000,0.000,0
1510777826.117,833.525,805.629,850.318,845.588,0.000,0.000,0
1510777826.119,833.045,803.984,848.467,842.847,0.000,0.000,0
1510777826.121,834.828,803.504,847.233,839.694,0.000,0.000,0
1510777826.123,835.993,802.339,848.399,842.093,0.000,0.000,0
1510777826.125,832.429,799.118,849.701,843.464,0.000,0.000,0
1510777826.127,837.158,800.489,851.826,850.592,0.000,0.000,0
1510777826.129,844.218,800.214,851.140,855.938,0.000,0.000,0
1510777826.131,847.096,796.719,850.318,855.527,0.000,0.000,0
1510777826.133,848.056,795.896,849.564,857.857,0.000,0.000,0
1510777826.135,850.044,800.077,851.140,860.051,0.000,0.000,0
1510777826.137,849.975,801.517,852.648,857.789,0.000,0.000,0
1510777826.139,842.504,802.545,852.374,847.165,0.000,0.000,0
1510777826.141,836.610,799.323,848.810,835.650,0.000,0.000,0
1510777826.143,840.722,800.420,847.919,836.541,0.000,0.000,0
1510777826.145,843.327,803.504,849.701,839.146,0.000,0.000,0
1510777826.147,836.610,804.190,849.838,837.226,0.000,0.000,0
1510777826.149,836.678,801.654,852.031,838.734,0.000,0.000,0
1510777826.151,836.267,804.532,850.592,846.959,0.000,0.000,0
1510777826.153,835.581,808.302,848.056,844.697,0.000,0.000,0
1510777826.155,837.364,809.330,849.084,842.161,0.000,0.000,0
1510777826.157,832.840,806.794,850.798,832.840,0.000,0.000,0
1510777826.159,826.740,805.218,849.906,826.123,0.000,0.000,0
1510777826.161,829.618,804.601,848.330,827.836,0.000,0.000,0
1510777826.163,834.759,805.012,849.838,834.485,0.000,0.000,0
1510777826.165,831.606,802.750,848.604,831.743,0.000,0.000,0
1510777826.167,832.154,802.065,847.713,832.634,0.000,0.000,0
1510777826.169,838.871,804.601,849.221,838.117,0.000,0.000,0
1510777826.171,839.694,806.931,851.277,844.012,0.000,0.000,0
1510777826.173,834.416,806.863,850.112,841.613,0.000,0.000,0
1510777826.175,833.936,804.944,849.701,840.791,0.000,0.000,0
1510777826.177,838.597,801.996,850.318,844.081,0.000,0.000,0
1510777826.179,839.900,800.077,851.552,847.713,0.000,0.000,0
1510777826.181,839.009,801.859,848.741,842.367,0.000,0.000,0
1510777826.183,841.887,803.162,849.153,842.778,0.000,0.000,0
1510777826.185,839.009,804.532,851.552,845.451,0.000,0.000,0
1510777826.187,844.218,807.480,853.882,849.221,0.000,0.000,0
1510777826.189,851.963,809.056,854.430,850.318,0.000,0.000,0
1510777826.191,859.160,808.508,855.047,856.486,0.000,0.000,0
1510777826.193,853.265,807.685,853.950,855.390,0.000,0.000,0
1510777826.195,852.648,807.343,852.648,856.966,0.000,0.000,0
1510777826.197,848.193,807.343,850.455,852.854,0.000,0.000,0
1510777826.199,845.931,805.492,848.330,849.358,0.000,0.000,0
1510777826.201,840.311,802.819,845.794,841.682,0.000,0.000,0
1510777826.203,842.504,804.053,846.959,838.734,0.000,0.000,0
1510777826.205,840.379,804.807,849.564,840.996,0.000,0.000,0
1510777826.207,834.416,804.807,850.866,843.121,0.000,0.000,0
1510777826.209,834.348,807.411,847.782,842.504,0.000,0.000,0
1510777826.211,834.759,809.467,848.878,841.202,0.000,0.000,0
1510777826.213,843.738,807.206,852.717,849.290,0.000,0.000,0
1510777826.215,845.794,807.754,851.277,848.810,0.000,0.000,0
1510777826.217,843.669,807.617,850.386,845.314,0.000,0.000,0
1510777826.219,839.900,801.996,849.632,840.585,0.000,0.000,0
1510777826.221,840.928,798.021,847.302,832.703,0.000,0.000,0
1510777826.223,846.479,800.352,846.548,833.594,0.000,0.000,0
1510777826.225,844.766,801.174,845.931,834.690,0.000,0.000,0
1510777826.227,850.386,803.436,846.685,842.024,0.000,0.000,0
1510777826.229,849.701,803.436,845.657,841.339,0.000,0.000,0
1510777826.231,850.386,806.246,844.834,839.762,0.000,0.000,0
1510777826.233,850.729,808.851,844.012,843.943,0.000,0.000,0
1510777826.235,853.059,804.738,844.766,845.657,0.000,0.000,0
1510777826.237,851.140,806.246,848.467,843.943,0.000,0.000,0
1510777826.239,846.754,806.177,847.782,838.049,0.000,0.000,0
1510777826.241,840.722,804.944,845.383,834.759,0.000,0.000,0
1510777826.243,842.161,807.891,847.370,841.819,0.000,0.000,0
1510777826.245,844.629,807.548,849.016,844.218,0.000,0.000,0
1510777826.247,841.202,807.685,850.181,843.190,0.000,0.000,0
1510777826.249,848.810,811.249,848.810,843.395,0.000,0.000,0
1510777826.251,847.782,810.633,850.660,850.386,0.000,0.000,0
1510777826.253,844.492,808.645,852.237,855.321,0.000,0.000,0
1510777826.255,837.775,807.411,849.632,841.887,0.000,0.000,0
1510777826.257,837.980,807.617,849.564,834.416,0.000,0.000,0
1510777826.259,836.884,810.084,847.850,829.550,0.000,0.000,0
1510777826.261,842.436,809.399,849.084,841.476,0.000,0.000,0
1510777826.263,847.439,805.698,848.810,849.358,0.000,0.000,0
1510777826.265,844.081,803.367,847.713,849.975,0.000,0.000,0
1510777826.267,835.033,804.601,849.016,847.713,0.000,0.000,0
1510777826.269,830.509,804.670,849.221,847.302,0.000,0.000,0
1510777826.271,839.077,805.492,849.564,855.732,0.000,0.000,0
1510777826.273,846.891,805.972,848.947,853.196,0.000,0.000,0
1510777826.275,848.330,804.670,849.906,850.044,0.000,0.000,0
1510777826.277,842.504,804.944,850.592,846.822,0.000,0.000,0
1510777826.279,830.647,803.299,847.782,837.158,0.000,0.000,0
1510777826.281,829.276,802.476,846.548,834.896,0.000,0.000,0
1510777826.283,836.747,804.464,850.935,842.161,0.000,0.000,0
1510777826.285,839.900,800.968,850.523,846.137,0.000,0.000,0
1510777826.287,838.323,798.981,847.576,839.557,0.000,0.000,0
1510777826.289,833.662,801.996,844.012,833.183,0.000,0.000,0
1510777826.291,839.625,806.931,843.121,832.703,0.000,0.000,0
1510777826.293,849.153,805.218,846.754,841.819,0.000,0.000,0
1510777826.295,848.536,805.766,847.028,845.863,0.000,0.000,0
1510777826.297,843.258,806.589,847.987,840.722,0.000,0.000,0
1510777826.299,839.762,804.258,849.838,841.682,0.000,0.000,0
1510777826.301,841.407,802.545,849.838,845.657,0.000,0.000,0
1510777826.303,843.806,805.424,848.673,845.931,0.000,0.000,0
1510777826.305,835.102,802.613,849.221,834.553,0.000,0.000,0
1510777826.307,835.856,800.900,847.850,835.993,0.000,0.000,0
1510777826.309,835.993,801.996,847.713,839.762,0.000,0.000,0
1510777826.311,836.952,803.916,847.439,844.834,0.000,0.000,0
1510777826.313,839.146,803.916,847.508,841.202,0.000,0.000,0
1510777826.315,835.787,802.271,847.713,844.766,0.000,0.000,0
1510777826.317,832.223,802.202,846.685,845.109,0.000,0.000,0
1510777826.319,835.856,803.504,847.370,844.834,0.000,0.000,0
1510777826.321,837.226,801.448,847.439,844.629,0.000,0.000,0
1510777826.323,832.497,799.118,848.467,840.654,0.000,0.000,0
1510777826.325,829.618,799.598,845.794,835.650,0.000,0.000,0
1510777826.327,838.734,797.267,847.439,844.012,0.000,0.000,0
1510777826.329,834.553,795.417,844.903,835.719,0.000,0.000,0
1510777826.331,831.743,796.582,845.520,833.731,0.000,0.000,0
1510777826.333,832.017,798.706,847.713,838.049,0.000,0.000,0
1510777826.335,830.989,800.489,847.713,844.081,0.000,0.000,0
1510777826.337,832.497,800.009,848.467,847.508,0.000,0.000,0
1510777826.339,828.316,794.731,848.124,840.174,0.000,0.000,0
1510777826.341,824.204,795.828,847.987,837.775,0.000,0.000,0
1510777826.343,833.045,799.666,846.891,839.694,0.000,0.000,0
1510777826.345,837.226,798.706,848.741,844.903,0.000,0.000,0
1510777826.347,835.993,801.242,851.757,847.919,0.000,0.000,0
1510777826.349,837.432,804.464,847.645,848.604,0.000,0.000,0
1510777826.351,836.815,803.916,846.822,846.000,0.000,0.000,0
1510777826.353,842.504,804.464,845.863,846.342,0.000,0.000,0
1510777826.355,839.283,804.121,845.520,840.654,0.000,0.000,0
1510777826.357,839.351,798.295,847.028,845.246,0.000,0.000,0
1510777826.359,834.074,795.554,849.153,840.791,0.000,0.000,0
1510777826.361,836.541,798.501,847.645,837.295,0.000,0.000,0
1510777826.363,841.065,803.916,848.741,842.230,0.000,0.000,0
1510777826.365,842.984,809.467,848.947,845.177,0.000,0.000,0
1510777826.367,837.775,808.919,848.604,841.407,0.000,0.000,0
1510777826.369,837.912,800.831,848.330,845.314,0.000,0.000,0
1510777826.371,835.444,798.981,845.931,846.617,0.000,0.000,0
1510777826.373,837.501,801.448,845.040,837.980,0.000,0.000,0
1510777826.375,837.432,800.694,845.863,834.211,0.000,0.000,0
1510777826.377,832.292,800.489,845.931,832.497,0.000,0.000,0
1510777826.379,835.376,802.271,844.081,836.061,0.000,0.000,0
1510777826.381,836.335,803.230,844.492,835.170,0.000,0.000,0
1510777826.383,840.242,805.492,847.370,837.089,0.000,0.000,0
1510777826.385,844.629,805.286,850.044,844.149,0.000,0.000,0
1510777826.387,845.314,808.576,848.604,844.629,0.000,0.000,0
1510777826.389,843.669,805.766,847.782,847.165,0.000,0.000,0
1510777826.391,846.617,802.750,847.576,849.153,0.000,0.000,0
1510777826.393,848.467,803.710,849.290,854.293,0.000,0.000,0
1510777826.395,837.021,803.641,850.798,851.963,0.000,0.000,0
1510777826.397,832.086,801.105,851.072,847.919,0.000,0.000,0
1510777826.399,832.703,798.844,851.209,846.411,0.000,0.000,0
1510777826.401,834.485,803.162,848.673,844.560,0.000,0.000,0
1510777826.403,836.815,807.000,849.975,844.081,0.000,0.000,0
1510777826.405,837.226,805.766,851.483,846.891,0.000,0.000,0
1510777826.407,839.077,806.452,852.785,846.342,0.000,0.000,0
1510777826.409,840.174,805.012,852.854,841.750,0.000,0.000,0
1510777826.411,846.685,805.561,851.209,846.754,0.000,0.000,0
1510777826.413,848.124,805.286,851.552,854.979,0.000,0.000,0
1510777826.415,843.806,806.863,850.523,855.184,0.000,0.000,0
1510777826.417,837.501,807.960,851.620,855.732,0.000,0.000,0
1510777826.419,833.799,808.508,852.031,850.798,0.000,0.000,0
1510777826.421,835.719,802.408,853.882,841.887,0.000,0.000,0
1510777826.423,841.339,804.807,851.757,838.666,0.000,0.000,0
1510777826.425,845.520,807.068,851.552,840.585,0.000,0.000,0
1510777826.427,843.121,808.645,849.564,839.351,0.000,0.000,0
1510777826.429,838.460,808.302,850.798,840.791,0.000,0.000,0
1510777826.431,841.819,806.931,850.455,846.068,0.000,0.000,0
1510777826.433,844.560,807.343,850.592,847.439,0.000,0.000,0
1510777826.435,848.467,808.508,849.769,842.778,0.000,0.000,0
1510777826.437,845.451,806.520,852.168,840.242,0.000,0.000,0
1510777826.439,837.158,808.851,850.249,835.444,0.000,0.000,0
1510777826.441,835.102,810.290,848.947,833.251,0.000,0.000,0
1510777826.443,838.255,810.975,848.947,835.102,0.000,0.000,0
1510777826.445,846.685,809.262,847.782,838.597,0.000,0.000,0
1510777826.447,846.274,805.766,848.330,839.351,0.000,0.000,0
1510777826.449,845.931,805.492,848.536,842.161,0.000,0.000,0
1510777826.451,848.947,807.685,848.604,849.906,0.000,0.000,0
1510777826.453,844.629,809.399,847.782,844.903,0.000,0.000,0
1510777826.455,839.283,806.863,847.850,839.009,0.000,0.000,0
1510777826.457,837.843,800.694,850.729,840.105,0.000,0.000,0
1510777826.459,839.351,802.682,849.838,846.685,0.000,0.000,0
1510777826.461,837.501,807.891,849.701,842.093,0.000,0.000,0
1510777826.463,837.775,811.387,849.495,845.314,0.000,0.000,0
1510777826.465,843.532,811.181,850.318,847.987,0.000,0.000,0
1510777826.467,841.476,808.782,849.769,849.221,0.000,0.000,0
1510777826.469,837.912,805.698,850.592,850.798,0.000,0.000,0
1510777826.471,839.488,804.875,849.221,855.390,0.000,0.000,0
1510777826.473,837.089,804.327,849.495,852.031,0.000,0.000,0
1510777826.475,843.943,806.794,847.919,851.483,0.000,0.000,0
1510777826.477,840.105,804.670,849.290,851.483,0.000,0.000,0
1510777826.479,837.501,803.916,849.906,846.891,0.000,0.000,0
1510777826.481,836.335,806.794,851.003,844.081,0.000,0.000,0
1510777826.483,842.230,808.234,854.088,847.645,0.000,0.000,0
1510777826.485,847.096,808.919,853.402,846.000,0.000,0.000,0
1510777826.487,847.782,807.548,850.044,841.270,0.000,0.000,0
1510777826.489,840.105,804.327,845.794,834.896,0.000,0.000,0
1510777826.491,837.843,803.162,845.794,833.388,0.000,0.000,0
1510777826.493,840.037,805.492,846.205,839.968,0.000,0.000,0
1510777826.495,838.049,808.851,847.508,844.560,0.000,0.000,0
1510777826.497,838.460,810.084,848.536,844.972,0.000,0.000,0
1510777826.499,835.444,808.988,848.330,840.585,0.000,0.000,0
1510777826.501,832.360,810.084,846.411,836.884,0.000,0.000,0
1510777826.503,832.497,806.040,846.411,833.457,0.000,0.000,0
1510777826.505,837.706,801.311,848.741,834.211,0.000,0.000,0
1510777826.507,835.307,801.654,851.003,828.933,0.000,0.000,0
1510777826.509,841.339,803.093,853.471,830.441,0.000,0.000,0
1510777826.511,840.037,803.230,852.717,834.690,0.000,0.000,0
1510777826.513,839.968,803.367,851.552,840.174,0.000,0.000,0
1510777826.515,841.133,801.380,851.140,843.464,0.000,0.000,0
1510777826.517,840.174,800.694,851.620,842.230,0.000,0.000,0
1510777826.519,843.464,804.121,851.277,839.625,0.000,0.000,0
1510777826.521,840.859,806.040,853.471,839.351,0.000,0.000,0
1510777826.523,834.553,808.439,855.458,839.420,0.000,0.000,0
1510777826.525,830.989,808.851,851.346,837.226,0.000,0.000,0
1510777826.527,838.597,808.234,850.249,840.379,0.000,0.000,0
1510777826.529,834.553,808.097,850.044,841.202,0.000,0.000,0
1510777826.531,833.320,805.629,850.318,843.052,0.000,0.000,0
1510777826.533,837.021,804.532,851.963,846.822,0.000,0.000,0
1510777826.535,837.843,803.367,853.608,847.028,0.000,0.000,0
1510777826.537,840.928,805.012,852.785,847.987,0.000,0.000,0
1510777826.539,838.255,805.149,850.729,835.376,0.000,0.000,0
1510777826.541,839.557,806.726,847.028,827.562,0.000,0.000,0
1510777826.543,839.146,806.383,845.863,831.469,0.000,0.000,0
1510777826.545,842.436,805.972,848.262,838.597,0.000,0.000,0
1510777826.547,839.351,807.206,846.548,837.364,0.000,0.000,0
1510777826.549,840.859,807.891,848.330,838.529,0.000,0.000,0
1510777826.551,844.697,809.947,850.112,843.258,0.000,0.000,0
1510777826.553,848.124,809.330,850.935,847.987,0.000,0.000,0
1510777826.555,844.697,807.206,849.975,840.516,0.000,0.000,0
1510777826.557,837.364,805.698,853.128,838.529,0.000,0.000,0
1510777826.559,833.320,806.383,850.044,832.086,0.000,0.000,0
1510777826.561,844.218,807.685,847.370,837.569,0.000,0.000,0
1510777826.563,840.448,807.480,847.645,837.364,0.000,0.000,0
1510777826.565,840.928,804.807,848.741,838.597,0.000,0.000,0
1510777826.567,841.613,803.984,848.399,845.177,0.000,0.000,0
1510777826.569,837.501,806.726,849.838,849.975,0.000,0.000,0
1510777826.571,839.077,810.358,848.193,850.386,0.000,0.000,0
1510777826.573,844.423,809.262,847.028,841.545,0.000,0.000,0
1510777826.575,848.124,808.165,849.358,840.996,0.000,0.000,0
1510777826.577,845.451,810.016,849.495,842.161,0.000,0.000,0
1510777826.579,842.367,813.169,846.685,836.952,0.000,0.000,0
1510777826.581,838.392,810.975,846.068,834.005,0.000,0.000,0
1510777826.583,841.956,810.016,848.947,837.226,0.000,0.000,0
1510777826.585,844.629,809.467,849.016,843.943,0.000,0.000,0
1510777826.587,842.778,806.177,845.177,834.416,0.000,0.000,0
1510777826.589,844.492,806.383,846.205,833.662,0.000,0.000,0
1510777826.591,839.762,809.536,846.891,837.638,0.000,0.000,0
1510777826.593,842.641,812.346,848.536,843.669,0.000,0.000,0
1510777826.595,843.464,813.374,849.769,841.407,0.000,0.000,0
1510777826.597,841.682,813.648,847.508,842.915,0.000,0.000,0
1510777826.599,843.532,812.689,846.685,841.339,0.000,0.000,0
1510777826.601,841.202,812.826,849.564,837.089,0.000,0.000,0
1510777826.603,843.806,813.032,851.277,839.488,0.000,0.000,0
1510777826.605,848.467,815.225,851.072,846.068,0.000,0.000,0
1510777826.607,849.906,812.346,849.084,840.174,0.000,0.000,0
1510777826.609,846.617,810.907,846.342,843.121,0.000,0.000,0
1510777826.611,844.423,814.128,849.016,847.439,0.000,0.000,0
1510777826.613,844.697,812.826,850.044,849.838,0.000,0.000,0
1510777826.615,844.560,811.181,850.249,846.617,0.000,0.000,0
1510777826.617,839.283,809.125,850.112,847.302,0.000,0.000,0
1510777826.619,841.202,810.907,852.305,844.903,0.000,0.000,0
1510777826.621,841.407,805.972,854.088,840.928,0.000,0.000,0
1510777826.623,838.803,803.230,853.950,838.803,0.000,0.000,0
1510777826.625,837.638,804.738,852.785,839.488,0.000,0.000,0
1510777826.627,842.778,807.617,852.922,842.504,0.000,0.000,0
1510777826.629,847.919,809.262,851.072,844.286,0.000,0.000,0
1510777826.631,850.318,810.633,852.785,849.495,0.000,0.000,0
1510777826.633,855.595,813.306,851.483,853.196,0.000,0.000,0
1510777826.635,851.209,816.116,850.523,847.987,0.000,0.000,0
1510777826.637,852.031,818.926,853.402,847.645,0.000,0.000,0
1510777826.639,846.822,817.350,854.019,843.190,0.000,0.000,0
1510777826.641,841.065,813.306,854.156,835.376,0.000,0.000,0
1510777826.643,845.657,813.854,856.281,836.335,0.000,0.000,0
1510777826.645,853.676,814.060,855.390,842.230,0.000,0.000,0
1510777826.647,856.007,809.810,852.922,843.601,0.000,0.000,0
1510777826.649,853.334,811.112,849.906,846.617,0.000,0.000,0
1510777826.651,848.810,815.156,851.963,853.128,0.000,0.000,0
1510777826.653,847.987,816.321,852.443,854.019,0.000,0.000,0
1510777826.655,846.891,814.608,853.265,856.281,0.000,0.000,0
1510777826.657,845.657,812.141,852.511,848.673,0.000,0.000,0
1510777826.659,845.588,812.689,852.648,846.137,0.000,0.000,0
1510777826.661,844.081,811.661,854.019,850.386,0.000,0.000,0
1510777826.663,838.529,808.988,854.019,847.233,0.000,0.000,0
1510777826.665,840.037,810.770,852.305,843.806,0.000,0.000,0
1510777826.667,843.464,813.100,852.580,847.439,0.000,0.000,0
1510777826.669,845.383,811.661,853.196,854.088,0.000,0.000,0
1510777826.671,843.943,810.907,853.608,851.003,0.000,0.000,0
1510777826.673,839.900,812.278,852.717,841.339,0.000,0.000,0
1510777826.675,837.432,808.713,851.483,836.061,0.000,0.000,0
1510777826.677,839.420,810.290,849.427,838.255,0.000,0.000,0
1510777826.679,838.871,807.343,848.536,840.516,0.000,0.000,0
1510777826.681,841.682,805.218,848.673,841.476,0.000,0.000,0
1510777826.683,846.754,804.944,850.318,845.520,0.000,0.000,0
1510777826.685,842.915,805.286,851.552,848.673,0.000,0.000,0
1510777826.687,840.585,806.109,850.455,848.878,0.000,0.000,0
1510777826.689,844.834,807.000,852.717,852.100,0.000,0.000,0
1510777826.691,843.327,811.455,851.072,849.084,0.000,0.000,0
1510777826.693,843.943,814.608,852.785,856.418,0.000,0.000,0
1510777826.695,844.629,814.060,851.414,858.817,0.000,0.000,0
1510777826.697,840.448,813.580,849.975,853.676,0.000,0.000,0
1510777826.699,841.750,812.620,853.196,851.003,0.000,0.000,0
1510777826.701,846.342,815.156,854.430,853.265,0.000,0.000,0
1510777826.703,844.766,814.128,853.471,847.713,0.000,0.000,0
1510777826.705,838.529,811.318,852.648,841.887,0.000,0.000,0
1510777826.707,832.977,809.536,851.140,840.174,0.000,0.000,0
1510777826.709,837.980,808.371,847.508,841.956,0.000,0.000,0
1510777826.711,845.588,805.149,848.673,848.399,0.000,0.000,0
1510777826.713,848.056,806.726,847.919,847.919,0.000,0.000,0
1510777826.715,850.523,811.661,848.262,855.116,0.000,0.000,0
1510777826.717,846.274,812.757,847.370,850.523,0.000,0.000,0
1510777826.719,837.980,812.483,846.479,841.819,0.000,0.000,1
1510777826.721,834.485,810.153,846.891,840.996,0.000,0.000,0
1510777826.723,833.868,810.221,846.342,830.784,0.000,0.000,0
1510777826.725,834.896,808.165,846.891,832.840,0.000,0.000,0
1510777826.727,836.130,806.657,850.455,838.940,0.000,0.000,0
1510777826.729,836.267,808.028,850.866,842.984,0.000,0.000,0
1510777826.731,836.404,812.278,851.277,844.834,0.000,0.000,0
1510777826.733,832.017,813.237,851.072,845.657,0.000,0.000,0
1510777826.735,834.416,810.221,852.168,849.701,0.000,0.000,0
1510777826.737,838.392,806.109,852.785,843.875,0.000,0.000,0
1510777826.739,840.859,802.065,855.321,841.202,0.000,0.000,0
1510777826.741,839.146,805.355,855.595,832.703,0.000,0.000,0
1510777826.743,846.000,809.604,856.486,839.968,0.000,0.000,0
1510777826.745,848.810,807.617,855.184,846.205,0.000,0.000,0
1510777826.747,839.351,805.766,854.225,847.645,0.000,0.000,0
1510777826.749,839.831,810.221,853.608,848.741,0.000,0.000,0
1510777826.751,843.601,812.003,852.168,850.181,0.000,0.000,0
1510777826.753,854.156,811.592,851.414,853.059,0.000,0.000,0
1510777826.755,852.100,810.975,852.580,851.209,0.000,0.000,0
1510777826.757,846.822,809.536,849.084,845.588,0.000,0.000,0
1510777826.759,841.133,808.576,846.959,838.734,0.000,0.000,0
1510777826.760,844.149,809.056,846.000,840.242,0.000,0.000,0
1510777826.762,846.891,807.891,845.109,839.488,0.000,0.000,0
1510777826.764,846.959,808.508,845.794,837.021,0.000,0.000,0
1510777826.766,850.249,806.452,849.632,843.738,0.000,0.000,0
1510777826.768,850.181,806.863,852.443,846.479,0.000,0.000,0
1510777826.770,855.253,809.810,853.334,851.826,0.000,0.000,0
1510777826.772,856.349,812.894,852.305,853.608,0.000,0.000,0
1510777826.774,848.399,814.882,846.959,847.096,0.000,0.000,0
1510777826.776,843.395,815.019,848.193,843.943,0.000,0.000,0
1510777826.778,835.719,810.770,850.181,842.984,0.000,0.000,0
1510777826.780,833.525,811.455,849.564,843.395,0.000,0.000,0
1510777826.782,833.457,809.125,849.701,843.532,0.000,0.000,0
1510777826.784,835.376,808.097,852.168,848.193,0.000,0.000,0
1510777826.786,841.133,809.879,853.128,848.741,0.000,0.000,0
1510777826.788,846.274,807.617,852.922,843.669,0.000,0.000,0
1510777826.790,846.274,806.452,853.813,846.411,0.000,0.000,0
1510777826.792,850.729,811.798,855.184,853.608,0.000,0.000,0
1510777826.794,843.601,813.237,852.854,853.745,0.000,0.000,0
1510777826.796,846.137,810.290,851.140,852.580,0.000,0.000,0
1510777826.798,850.523,809.330,851.277,852.443,0.000,0.000,0
1510777826.800,852.100,812.689,853.608,850.523,0.000,0.000,0
1510777826.802,842.298,811.112,852.922,839.831,0.000,0.000,0
1510777826.804,837.364,808.371,852.717,839.077,0.000,0.000,0
1510777826.806,834.074,806.452,849.632,842.298,0.000,0.000,0
1510777826.808,843.258,805.629,850.112,847.028,0.000,0.000,0
1510777826.810,851.140,805.766,852.237,853.882,0.000,0.000,0
1510777826.812,847.987,806.040,850.660,854.293,0.000,0.000,0
1510777826.814,850.729,802.202,851.963,858.543,0.000,0.000,0
1510777826.816,852.854,798.775,851.277,854.636,0.000,0.000,0
1510777826.818,855.458,803.573,850.181,849.290,0.000,0.000,0
1510777826.820,850.386,805.286,849.632,842.093,0.000,0.000,0
1510777826.822,849.906,810.907,847.919,843.806,0.000,0.000,0
1510777826.824,853.471,810.084,851.689,848.124,0.000,0.000,0
1510777826.826,847.919,808.097,853.608,843.121,0.000,0.000,0
1510777826.828,840.654,811.318,852.031,841.613,0.000,0.000,0
1510777826.830,841.476,809.742,850.181,847.576,0.000,0.000,0
1510777826.832,842.230,808.782,848.947,853.676,0.000,0.000,0
1510777826.834,849.084,815.362,849.495,854.704,0.000,0.000,0
1510777826.836,838.323,815.225,849.632,848.124,0.000,0.000,0
1510777826.838,832.771,808.645,850.935,845.657,0.000,0.000,0
1510777826.840,839.694,807.411,849.975,841.270,0.000,0.000,0
1510777826.842,843.121,810.290,849.701,845.246,0.000,0.000,0
1510777826.844,843.806,809.330,847.782,844.697,0.000,0.000,0
1510777826.846,848.878,810.358,848.947,846.000,0.000,0.000,0
1510777826.848,846.205,808.576,849.016,844.286,0.000,0.000,0
1510777826.850,846.891,809.467,847.302,846.411,0.000,0.000,0
1510777826.852,843.943,807.891,848.330,847.508,0.000,0.000,0
1510777826.854,843.258,807.685,849.358,852.100,0.000,0.000,0
1510777826.856,844.355,808.645,850.044,857.789,0.000,0.000,0
1510777826.858,845.726,807.411,847.713,848.330,0.000,0.000,0
1510777826.860,846.342,801.791,847.850,840.174,0.000,0.000,0
1510777826.862,844.766,802.682,849.701,837.912,0.000,0.000,0
1510777826.864,846.685,803.367,850.386,836.061,0.000,0.000,0
1510777826.866,842.093,805.698,851.072,842.161,0.000,0.000,0
1510777826.868,845.657,805.561,851.003,846.342,0.000,0.000,0
1510777826.870,851.277,810.427,849.495,845.931,0.000,0.000,0
1510777826.872,849.769,808.645,851.072,845.109,0.000,0.000,0
1510777826.874,846.754,809.742,848.467,847.850,0.000,0.000,0
1510777826.876,838.392,808.576,850.249,843.601,0.000,0.000,0
1510777826.878,833.936,809.947,851.003,841.065,0.000,0.000,0
1510777826.880,840.311,811.455,851.072,846.822,0.000,0.000,0
1510777826.882,840.174,808.919,848.741,844.972,0.000,0.000,0
