timestamps,TP9,FP1,FP2,TP10,n/a,n/a,Marker0
1510776531.586,820.023,816.184,856.761,835.239,0.000,0.000,0
1510776531.588,823.381,817.007,856.761,841.407,0.000,0.000,0
1510776531.590,822.559,816.253,857.446,831.812,0.000,0.000,0
1510776531.592,808.645,811.866,853.059,802.408,0.000,0.000,0
1510776531.594,803.367,812.894,854.910,786.232,0.000,0.000,0
1510776531.596,809.673,814.677,855.732,790.345,0.000,0.000,0
1510776531.598,818.583,817.555,856.007,800.763,0.000,0.000,0
1510776531.600,822.901,818.652,854.225,808.851,0.000,0.000,0
1510776531.602,816.870,816.047,853.402,817.007,0.000,0.000,0
1510776531.604,816.596,816.733,854.841,829.139,0.000,0.000,0
1510776531.606,827.288,818.104,856.624,843.190,0.000,0.000,0
1510776531.608,820.708,819.886,856.966,847.576,0.000,0.000,0
1510776531.610,814.677,818.995,857.103,835.170,0.000,0.000,0
1510776531.612,810.633,820.982,859.434,810.975,0.000,0.000,0
1510776531.614,805.561,819.200,860.188,789.522,0.000,0.000,0
1510776531.616,809.467,818.446,857.926,773.278,0.000,0.000,0
1510776531.618,816.116,817.829,857.515,781.229,0.000,0.000,0
1510776531.620,826.466,814.882,858.406,804.258,0.000,0.000,0
1510776531.622,836.335,814.677,859.913,824.615,0.000,0.000,0
1510776531.624,835.239,816.184,862.312,837.158,0.000,0.000,0
1510776531.626,834.690,816.253,858.611,841.270,0.000,0.000,0
1510776531.628,834.279,818.857,859.708,843.258,0.000,0.000,0
1510776531.630,824.478,817.144,857.515,828.248,0.000,0.000,0
1510776531.632,821.462,821.531,857.926,806.109,0.000,0.000,0
1510776531.634,817.350,824.204,856.898,792.127,0.000,0.000,0
1510776531.636,817.898,824.752,858.748,795.896,0.000,0.000,0
1510776531.638,813.854,822.764,856.418,800.489,0.000,0.000,0
1510776531.640,810.290,820.023,855.116,802.956,0.000,0.000,0
1510776531.642,813.648,820.640,853.608,808.919,0.000,0.000,0
1510776531.644,820.091,820.914,854.225,822.764,0.000,0.000,0
1510776531.646,818.104,822.901,856.075,831.812,0.000,0.000,0
1510776531.648,810.838,821.942,856.486,827.151,0.000,0.000,0
1510776531.650,803.779,820.845,855.116,813.032,0.000,0.000,0
1510776531.652,804.190,820.708,854.704,795.348,0.000,0.000,0
1510776531.654,808.988,821.736,855.595,789.179,0.000,0.000,0
1510776531.656,813.443,820.982,857.652,792.881,0.000,0.000,0
1510776531.658,819.543,821.668,858.680,792.675,0.000,0.000,0
1510776531.660,819.269,821.462,857.857,799.529,0.000,0.000,0
1510776531.662,823.107,820.160,857.857,812.278,0.000,0.000,0
1510776531.664,829.550,819.543,859.639,833.457,0.000,0.000,0
1510776531.666,838.392,822.285,860.667,851.414,0.000,0.000,0
1510776531.668,835.444,820.503,860.119,846.959,0.000,0.000,0
1510776531.670,830.235,817.966,858.611,833.320,0.000,0.000,0
1510776531.672,827.151,820.228,858.748,818.652,0.000,0.000,0
1510776531.674,824.958,821.531,857.857,804.738,0.000,0.000,0
1510776531.676,821.736,823.587,858.200,801.311,0.000,0.000,0
1510776531.678,817.418,822.079,859.160,802.750,0.000,0.000,0
1510776531.680,822.147,815.910,858.954,798.981,0.000,0.000,0
1510776531.682,830.509,818.446,860.256,810.496,0.000,0.000,0
1510776531.684,830.235,819.543,859.022,824.752,0.000,0.000,0
1510776531.686,830.578,821.668,858.474,839.077,0.000,0.000,0
1510776531.688,832.292,824.409,860.736,839.077,0.000,0.000,0
1510776531.690,831.880,823.107,860.325,832.429,0.000,0.000,0
1510776531.692,831.606,823.518,861.010,819.269,0.000,0.000,0
1510776531.694,818.857,821.805,858.474,800.420,0.000,0.000,0
1510776531.696,814.334,823.792,862.518,796.239,0.000,0.000,0
1510776531.698,810.975,821.325,858.406,788.151,0.000,0.000,0
1510776531.700,814.539,822.970,857.515,793.634,0.000,0.000,0
1510776531.702,820.091,824.409,857.035,804.190,0.000,0.000,0
1510776531.704,823.587,822.901,856.555,818.446,0.000,0.000,0
1510776531.706,828.453,820.845,857.172,839.351,0.000,0.000,0
1510776531.708,828.796,818.652,856.555,845.246,0.000,0.000,0
1510776531.710,827.973,820.365,858.543,841.339,0.000,0.000,0
1510776531.712,820.845,819.886,858.131,810.496,0.000,0.000,0
1510776531.714,813.237,821.188,858.680,795.348,0.000,0.000,0
1510776531.716,810.633,820.708,857.103,799.529,0.000,0.000,0
1510776531.718,813.717,819.337,857.240,810.975,0.000,0.000,0
1510776531.720,822.285,818.857,857.652,822.627,0.000,0.000,0
1510776531.722,822.901,818.309,857.789,831.058,0.000,0.000,0
1510776531.724,825.300,821.462,860.530,843.943,0.000,0.000,0
1510776531.726,828.111,819.749,860.599,851.140,0.000,0.000,0
1510776531.728,825.506,818.378,858.543,849.221,0.000,0.000,0
1510776531.730,824.683,815.636,858.268,838.871,0.000,0.000,0
1510776531.732,821.188,821.531,858.474,817.075,0.000,0.000,0
1510776531.734,816.253,823.244,856.692,788.905,0.000,0.000,0
1510776531.736,819.406,823.861,856.829,786.575,0.000,0.000,0
1510776531.738,822.216,823.518,856.212,797.199,0.000,0.000,0
1510776531.740,821.668,821.805,856.692,811.387,0.000,0.000,0
1510776531.742,824.889,819.680,858.200,825.986,0.000,0.000,0
1510776531.744,826.603,819.269,858.063,824.615,0.000,0.000,0
1510776531.746,830.578,819.611,856.075,827.836,0.000,0.000,0
1510776531.748,830.441,819.269,854.499,831.606,0.000,0.000,0
1510776531.750,827.425,823.107,856.555,831.743,0.000,0.000,0
1510776531.752,822.559,822.079,856.692,819.269,0.000,0.000,0
1510776531.754,817.418,819.680,855.527,805.492,0.000,0.000,0
1510776531.756,815.499,819.200,856.349,801.242,0.000,0.000,0
1510776531.758,823.244,821.942,856.761,803.984,0.000,0.000,0
1510776531.760,825.232,822.490,853.813,795.348,0.000,0.000,0
1510776531.762,824.341,821.805,854.088,806.794,0.000,0.000,0
1510776531.764,821.942,819.749,853.676,823.381,0.000,0.000,0
1510776531.766,826.877,823.450,856.418,844.903,0.000,0.000,0
1510776531.768,827.905,824.478,855.732,848.330,0.000,0.000,0
1510776531.770,822.285,823.587,857.172,835.650,0.000,0.000,0
1510776531.772,817.624,819.749,857.446,821.531,0.000,0.000,0
1510776531.774,815.499,817.487,856.829,808.782,0.000,0.000,0
1510776531.776,821.599,817.007,856.418,810.564,0.000,0.000,0
1510776531.778,825.575,820.708,857.377,808.097,0.000,0.000,0
1510776531.780,825.300,821.668,858.268,809.742,0.000,0.000,0
1510776531.782,820.365,820.091,857.377,816.321,0.000,0.000,0
1510776531.784,825.369,820.708,857.377,832.634,0.000,0.000,0
1510776531.786,835.033,821.942,857.103,852.237,0.000,0.000,0
1510776531.788,833.799,822.901,855.390,854.362,0.000,0.000,0
1510776531.790,827.425,823.724,856.692,837.089,0.000,0.000,0
1510776531.792,821.736,825.369,859.571,818.995,0.000,0.000,0
1510776531.794,816.116,824.272,855.801,788.837,0.000,0.000,0
1510776531.796,819.611,824.546,855.321,789.591,0.000,0.000,0
1510776531.798,824.683,825.095,856.144,795.965,0.000,0.000,0
1510776531.800,823.176,822.764,854.979,797.130,0.000,0.000,0
1510776531.802,822.079,821.051,854.088,809.536,0.000,0.000,0
1510776531.804,823.244,820.914,854.773,828.727,0.000,0.000,0
1510776531.806,821.668,823.313,855.664,844.355,0.000,0.000,0
1510776531.808,821.325,823.587,853.059,843.327,0.000,0.000,0
1510776531.810,821.256,825.437,855.458,841.202,0.000,0.000,0
1510776531.812,814.334,824.683,855.664,809.536,0.000,0.000,0
1510776531.814,812.483,825.026,856.966,791.167,0.000,0.000,0
1510776531.816,810.427,821.462,855.664,790.687,0.000,0.000,0
1510776531.818,811.729,821.599,857.240,801.791,0.000,0.000,0
1510776531.820,817.007,820.914,855.458,813.923,0.000,0.000,0
1510776531.822,822.147,819.269,853.813,829.755,0.000,0.000,0
1510776531.824,826.671,820.228,854.499,847.096,0.000,0.000,0
1510776531.826,827.082,822.422,857.446,847.165,0.000,0.000,0
1510776531.828,822.559,823.587,858.063,835.033,0.000,0.000,0
1510776531.830,818.926,823.381,856.144,827.288,0.000,0.000,0
1510776531.832,816.047,822.559,854.773,822.353,0.000,0.000,0
1510776531.834,813.237,824.067,856.349,814.334,0.000,0.000,0
1510776531.836,813.032,822.422,855.253,811.387,0.000,0.000,0
1510776531.838,819.337,822.422,855.664,815.842,0.000,0.000,0
1510776531.840,820.091,821.942,856.692,823.244,0.000,0.000,0
1510776531.842,820.845,818.241,855.664,830.441,0.000,0.000,0
1510776531.844,827.425,821.119,856.692,834.074,0.000,0.000,0
1510776531.846,836.678,822.559,855.458,841.819,0.000,0.000,0
1510776531.848,832.908,819.200,853.471,842.915,0.000,0.000,0
1510776531.850,826.191,820.160,854.156,838.186,0.000,0.000,0
1510776531.852,820.777,820.708,853.196,822.833,0.000,0.000,0
1510776531.854,812.894,822.696,853.676,812.689,0.000,0.000,0
1510776531.856,816.459,822.696,854.225,806.726,0.000,0.000,0
1510776531.858,821.119,823.518,854.841,795.691,0.000,0.000,0
1510776531.860,817.075,822.010,854.979,800.557,0.000,0.000,0
1510776531.862,806.726,818.857,852.511,810.221,0.000,0.000,0
1510776531.864,815.636,820.708,854.293,828.179,0.000,0.000,0
1510776531.866,825.163,819.200,856.075,845.109,0.000,0.000,0
1510776531.868,820.571,816.733,857.309,849.769,0.000,0.000,0
1510776531.870,815.088,817.281,859.365,842.710,0.000,0.000,0
1510776531.872,812.620,818.995,858.748,822.559,0.000,0.000,0
1510776531.874,811.318,820.982,857.789,807.754,0.000,0.000,0
1510776531.876,815.842,822.696,857.240,804.327,0.000,0.000,0
1510776531.878,816.527,826.260,855.870,790.276,0.000,0.000,0
1510776531.880,816.116,824.135,854.636,793.223,0.000,0.000,0
1510776531.882,818.172,822.764,855.527,807.137,0.000,0.000,0
1510776531.884,826.123,821.051,856.349,828.864,0.000,0.000,0
1510776531.886,831.880,821.393,856.144,846.617,0.000,0.000,0
1510776531.888,836.678,821.531,856.007,852.922,0.000,0.000,0
1510776531.890,837.980,821.188,857.857,848.810,0.000,0.000,0
1510776531.892,837.569,822.147,859.845,836.198,0.000,0.000,0
1510776531.894,834.828,819.954,856.898,813.991,0.000,0.000,0
1510776531.896,833.731,814.882,854.567,799.049,0.000,0.000,0
1510776531.898,825.232,814.677,852.031,798.569,0.000,0.000,0
1510776531.900,813.717,820.982,851.072,797.747,0.000,0.000,0
1510776531.902,810.564,823.244,851.140,806.726,0.000,0.000,0
1510776531.904,816.047,826.260,853.059,827.425,0.000,0.000,0
1510776531.906,820.160,824.409,852.854,840.448,0.000,0.000,0
1510776531.908,817.966,823.039,853.334,840.174,0.000,0.000,0
1510776531.910,822.970,825.917,855.527,826.945,0.000,0.000,0
1510776531.912,825.712,824.889,856.624,808.234,0.000,0.000,0
1510776531.914,818.720,823.724,855.253,796.376,0.000,0.000,0
1510776531.916,813.854,826.191,854.979,798.844,0.000,0.000,0
1510776531.918,817.624,825.369,853.059,804.670,0.000,0.000,0
1510776531.920,823.244,823.107,854.225,813.169,0.000,0.000,0
1510776531.922,830.030,819.817,853.882,828.864,0.000,0.000,0
1510776531.924,835.376,817.624,855.321,843.190,0.000,0.000,0
1510776531.926,835.924,820.708,856.486,849.564,0.000,0.000,0
1510776531.928,829.755,820.297,855.390,840.928,0.000,0.000,0
1510776531.929,827.631,819.132,856.486,835.787,0.000,0.000,0
1510776531.931,824.409,821.462,858.611,821.188,0.000,0.000,0
1510776531.933,817.761,823.244,858.474,802.408,0.000,0.000,0
1510776531.935,813.648,822.970,856.692,792.195,0.000,0.000,0
1510776531.937,820.160,821.531,856.349,798.501,0.000,0.000,0
1510776531.939,824.615,822.970,856.624,808.439,0.000,0.000,0
1510776531.941,827.494,824.341,856.898,820.365,0.000,0.000,0
1510776531.943,834.416,824.821,856.144,822.833,0.000,0.000,0
1510776531.945,842.778,827.768,855.801,829.618,0.000,0.000,0
1510776531.947,840.379,826.603,853.265,833.251,0.000,0.000,0
1510776531.949,833.320,827.425,851.209,831.263,0.000,0.000,0
1510776531.951,825.506,825.986,850.181,820.297,0.000,0.000,0
1510776531.953,825.849,821.668,852.305,808.713,0.000,0.000,0
1510776531.955,830.372,819.406,853.608,804.532,0.000,0.000,0
1510776531.957,826.877,818.926,853.265,797.130,0.000,0.000,0
1510776531.959,818.857,820.708,854.567,804.670,0.000,0.000,0
1510776531.961,822.559,820.708,852.854,812.620,0.000,0.000,0
1510776531.963,833.662,822.422,852.031,824.683,0.000,0.000,0
1510776531.965,846.959,827.494,855.116,848.878,0.000,0.000,0
1510776531.967,845.383,826.534,854.636,856.144,0.000,0.000,0
1510776531.969,837.638,825.369,855.527,848.536,0.000,0.000,0
1510776531.971,836.815,824.546,858.748,835.239,0.000,0.000,0
1510776531.973,828.659,823.518,860.393,821.325,0.000,0.000,0
1510776531.975,824.821,823.861,860.256,811.112,0.000,0.000,0
1510776531.977,832.703,826.808,862.518,814.197,0.000,0.000,0
1510776531.979,835.170,820.777,859.845,806.246,0.000,0.000,0
1510776531.981,840.654,818.995,857.377,813.032,0.000,0.000,0
1510776531.983,840.996,820.777,857.309,828.522,0.000,0.000,0
1510776531.985,842.024,821.051,856.418,846.685,0.000,0.000,0
1510776531.987,844.560,822.696,856.898,856.486,0.000,0.000,0
1510776531.989,839.214,825.506,859.708,855.253,0.000,0.000,0
1510776531.991,827.973,824.478,858.680,824.341,0.000,0.000,0
1510776531.993,821.256,823.039,856.486,801.928,0.000,0.000,0
1510776531.995,817.692,819.886,853.813,793.292,0.000,0.000,0
1510776531.997,820.640,817.829,856.829,805.561,0.000,0.000,0
1510776531.999,826.054,820.297,859.913,819.269,0.000,0.000,0
1510776532.001,826.603,819.543,857.994,830.441,0.000,0.000,0
1510776532.003,826.945,817.555,856.144,842.367,0.000,0.000,0
1510776532.005,828.659,817.624,858.954,856.349,0.000,0.000,0
1510776532.007,831.263,818.857,859.091,860.256,0.000,0.000,0
1510776532.009,834.759,820.845,860.256,843.464,0.000,0.000,0
1510776532.011,831.195,820.365,861.079,815.225,0.000,0.000,0
1510776532.013,825.095,817.281,859.982,791.304,0.000,0.000,0
1510776532.015,823.861,820.091,861.010,793.360,0.000,0.000,0
1510776532.017,825.506,820.914,860.256,802.271,0.000,0.000,0
1510776532.019,824.546,822.353,860.530,813.169,0.000,0.000,0
1510776532.021,826.945,820.982,859.639,823.587,0.000,0.000,0
1510776532.023,830.578,820.434,858.474,834.828,0.000,0.000,0
1510776532.025,837.021,824.478,858.748,841.750,0.000,0.000,0
1510776532.027,841.476,824.067,858.131,831.675,0.000,0.000,0
1510776532.029,835.239,820.777,855.801,820.914,0.000,0.000,0
1510776532.031,824.615,820.845,857.446,811.798,0.000,0.000,0
1510776532.033,818.172,819.886,856.692,802.065,0.000,0.000,0
1510776532.035,820.434,817.692,854.362,799.460,0.000,0.000,0
1510776532.037,823.587,812.552,855.527,808.645,0.000,0.000,0
1510776532.039,828.864,814.402,856.349,817.281,0.000,0.000,0
1510776532.041,834.348,821.942,857.309,830.030,0.000,0.000,0
1510776532.043,836.610,821.256,852.305,826.945,0.000,0.000,0
1510776532.045,835.513,821.393,852.580,839.557,0.000,0.000,0
1510776532.047,828.453,819.200,851.826,846.959,0.000,0.000,0
1510776532.049,826.945,821.942,855.390,844.903,0.000,0.000,0
1510776532.051,822.216,822.216,853.265,824.409,0.000,0.000,0
1510776532.053,819.611,822.285,852.785,809.193,0.000,0.000,0
1510776532.055,815.088,821.119,851.346,798.021,0.000,0.000,0
1510776532.057,819.954,823.587,852.785,799.940,0.000,0.000,0
1510776532.059,824.821,821.599,851.003,795.211,0.000,0.000,0
1510776532.061,828.248,818.720,850.455,805.766,0.000,0.000,0
1510776532.063,828.111,818.857,849.701,826.945,0.000,0.000,0
1510776532.065,833.251,822.833,853.334,850.181,0.000,0.000,0
1510776532.067,835.307,823.107,854.430,856.418,0.000,0.000,0
1510776532.069,825.986,822.353,854.499,844.355,0.000,0.000,0
1510776532.071,821.531,822.353,855.321,827.631,0.000,0.000,0
1510776532.073,818.857,820.023,855.732,812.278,0.000,0.000,0
1510776532.075,822.833,820.640,857.515,800.352,0.000,0.000,0
1510776532.077,824.683,821.736,857.377,793.155,0.000,0.000,0
1510776532.079,825.986,818.583,856.144,798.021,0.000,0.000,0
1510776532.081,830.235,817.829,857.446,814.197,0.000,0.000,0
1510776532.083,834.074,817.761,859.571,834.416,0.000,0.000,0
1510776532.085,837.364,816.253,858.063,852.922,0.000,0.000,0
1510776532.087,831.263,814.128,857.103,858.748,0.000,0.000,0
1510776532.089,830.989,812.278,856.486,853.334,0.000,0.000,0
1510776532.091,825.575,818.378,858.885,834.416,0.000,0.000,0
1510776532.093,822.010,819.200,858.817,818.241,0.000,0.000,0
1510776532.095,817.418,816.459,856.829,804.395,0.000,0.000,0
1510776532.097,816.596,820.091,858.337,806.931,0.000,0.000,0
1510776532.099,817.418,819.680,855.595,802.750,0.000,0.000,0
1510776532.101,821.873,821.325,855.458,815.979,0.000,0.000,0
1510776532.103,826.123,823.039,854.293,828.385,0.000,0.000,0
1510776532.105,829.413,822.696,855.458,840.242,0.000,0.000,0
1510776532.107,823.244,820.640,856.144,835.102,0.000,0.000,0
1510776532.109,815.910,820.091,855.938,821.942,0.000,0.000,0
1510776532.111,811.592,818.583,854.362,799.460,0.000,0.000,0
1510776532.113,809.262,819.063,855.253,789.796,0.000,0.000,0
1510776532.115,809.399,817.281,853.539,788.631,0.000,0.000,0
1510776532.117,815.705,816.801,854.362,798.844,0.000,0.000,0
1510776532.119,819.063,816.664,852.717,808.919,0.000,0.000,0
1510776532.121,822.490,814.197,853.128,820.777,0.000,0.000,0
1510776532.123,828.248,812.689,853.882,832.086,0.000,0.000,0
1510776532.125,834.074,814.608,855.732,838.666,0.000,0.000,0
1510776532.127,827.631,813.580,855.047,832.360,0.000,0.000,0
1510776532.129,823.861,813.374,852.443,820.982,0.000,0.000,0
1510776532.131,824.478,816.253,854.225,814.402,0.000,0.000,0
1510776532.133,825.643,818.378,855.664,803.367,0.000,0.000,0
1510776532.135,815.019,819.406,855.938,792.606,0.000,0.000,0
1510776532.137,809.947,818.995,855.664,795.554,0.000,0.000,0
1510776532.139,814.197,818.720,854.979,806.726,0.000,0.000,0
1510776532.141,820.434,819.337,857.309,818.378,0.000,0.000,0
1510776532.143,820.228,815.910,855.458,815.430,0.000,0.000,0
1510776532.145,822.490,814.334,854.293,821.325,0.000,0.000,0
1510776532.147,824.409,815.362,852.717,831.195,0.000,0.000,0
1510776532.149,826.808,814.539,853.676,830.715,0.000,0.000,0
1510776532.151,824.272,813.991,853.402,815.910,0.000,0.000,0
1510776532.153,821.325,817.075,853.196,796.376,0.000,0.000,0
1510776532.155,823.244,818.926,851.346,789.042,0.000,0.000,0
1510776532.157,831.880,822.353,854.225,797.610,0.000,0.000,0
1510776532.159,830.441,821.119,854.225,790.893,0.000,0.000,0
1510776532.161,826.671,821.393,855.527,802.134,0.000,0.000,0
1510776532.163,830.509,819.200,852.991,817.281,0.000,0.000,0
1510776532.165,839.488,819.611,852.648,835.787,0.000,0.000,0
1510776532.167,836.952,817.144,851.552,841.202,0.000,0.000,0
1510776532.169,833.114,814.677,851.277,835.102,0.000,0.000,0
1510776532.171,830.852,813.580,850.866,819.474,0.000,0.000,0
1510776532.173,821.873,814.265,850.729,803.710,0.000,0.000,0
1510776532.175,818.720,818.172,853.745,791.921,0.000,0.000,0
1510776532.177,816.253,817.213,850.866,781.366,0.000,0.000,0
1510776532.179,818.995,818.857,849.564,791.304,0.000,0.000,0
1510776532.181,823.107,818.172,850.318,811.249,0.000,0.000,0
1510776532.183,827.357,818.104,852.031,829.481,0.000,0.000,0
1510776532.185,833.251,818.241,853.196,846.342,0.000,0.000,0
1510776532.187,826.466,816.527,852.237,847.713,0.000,0.000,0
1510776532.189,817.761,815.705,851.620,838.392,0.000,0.000,0
1510776532.191,818.309,819.063,855.116,815.430,0.000,0.000,0
1510776532.193,811.181,817.829,852.922,786.849,0.000,0.000,0
1510776532.195,808.576,814.677,852.237,779.104,0.000,0.000,0
1510776532.197,816.664,814.265,852.443,792.264,0.000,0.000,0
1510776532.199,820.023,820.503,855.732,808.713,0.000,0.000,0
1510776532.201,822.490,822.147,854.430,817.829,0.000,0.000,0
1510776532.203,825.300,820.982,852.854,829.618,0.000,0.000,0
1510776532.205,825.437,822.422,852.922,841.613,0.000,0.000,0
1510776532.207,826.466,821.805,852.648,844.423,0.000,0.000,0
1510776532.209,825.643,823.724,853.676,828.453,0.000,0.000,0
1510776532.211,820.228,824.272,852.374,804.258,0.000,0.000,0
1510776532.213,821.805,822.490,852.580,790.207,0.000,0.000,0
1510776532.215,825.986,823.587,852.648,789.933,0.000,0.000,0
1510776532.217,820.845,821.119,853.196,794.594,0.000,0.000,0
1510776532.219,816.390,819.611,850.798,801.928,0.000,0.000,0
1510776532.221,815.979,819.749,849.769,808.028,0.000,0.000,0
1510776532.223,821.119,821.805,851.620,821.531,0.000,0.000,0
1510776532.225,815.705,820.091,850.592,819.269,0.000,0.000,0
1510776532.227,818.995,820.982,847.850,824.341,0.000,0.000,0
1510776532.229,820.640,818.515,847.028,819.817,0.000,0.000,0
1510776532.231,818.172,817.829,850.455,809.673,0.000,0.000,0
1510776532.233,811.249,814.197,851.003,798.844,0.000,0.000,0
1510776532.235,804.738,814.539,850.181,797.953,0.000,0.000,0
1510776532.237,803.299,816.938,849.769,801.380,0.000,0.000,0
1510776532.239,809.330,817.144,851.277,804.807,0.000,0.000,0
1510776532.241,822.353,820.091,854.225,806.794,0.000,0.000,0
1510776532.243,822.970,817.418,852.374,809.399,0.000,0.000,0
1510776532.245,826.260,817.555,853.196,822.901,0.000,0.000,0
1510776532.247,827.768,818.309,851.140,831.469,0.000,0.000,0
1510776532.249,824.204,817.761,851.003,826.945,0.000,0.000,0
1510776532.251,822.285,818.035,849.427,811.318,0.000,0.000,0
1510776532.253,816.938,818.446,849.701,793.909,0.000,0.000,0
1510776532.255,812.963,815.362,850.386,791.990,0.000,0.000,0
1510776532.257,814.882,814.128,850.386,798.569,0.000,0.000,0
1510776532.259,813.991,818.035,853.608,801.859,0.000,0.000,0
1510776532.261,817.213,816.870,851.894,799.255,0.000,0.000,0
1510776532.263,821.873,815.293,848.741,807.617,0.000,0.000,0
1510776532.265,827.768,819.611,850.523,829.002,0.000,0.000,0
1510776532.267,826.603,822.490,852.648,839.625,0.000,0.000,0
1510776532.269,822.147,823.655,853.265,838.186,0.000,0.000,0
1510776532.271,822.764,824.683,852.922,820.640,0.000,0.000,0
1510776532.273,818.995,825.643,852.922,795.759,0.000,0.000,0
1510776532.275,810.838,824.341,853.471,784.107,0.000,0.000,0
1510776532.277,807.274,818.378,850.044,783.216,0.000,0.000,0
1510776532.279,813.169,816.938,850.866,795.485,0.000,0.000,0
1510776532.281,817.624,812.689,854.704,810.084,0.000,0.000,0
1510776532.283,820.297,812.003,855.047,824.478,0.000,0.000,0
1510776532.285,827.562,816.390,853.950,840.311,0.000,0.000,0
1510776532.287,832.908,820.982,852.305,846.822,0.000,0.000,0
1510776532.289,833.183,824.204,852.511,840.859,0.000,0.000,0
1510776532.291,823.450,823.313,853.471,821.668,0.000,0.000,0
1510776532.293,813.237,822.901,855.732,808.576,0.000,0.000,0
1510776532.295,808.508,820.777,853.059,786.712,0.000,0.000,0
1510776532.297,813.511,822.833,852.100,790.070,0.000,0.000,0
1510776532.299,821.462,822.079,851.757,804.738,0.000,0.000,0
1510776532.301,836.404,821.051,852.580,826.466,0.000,0.000,0
1510776532.303,840.928,820.777,854.362,845.726,0.000,0.000,0
1510776532.305,837.432,817.692,856.555,862.929,0.000,0.000,0
1510776532.307,829.139,816.253,858.474,851.140,0.000,0.000,0
1510776532.309,818.446,815.979,856.624,831.606,0.000,0.000,0
1510776532.311,808.576,814.128,854.567,812.620,0.000,0.000,0
1510776532.313,809.193,816.527,854.019,804.395,0.000,0.000,0
1510776532.315,807.960,819.406,856.692,803.093,0.000,0.000,0
1510776532.317,812.552,819.132,855.321,802.956,0.000,0.000,0
1510776532.319,818.104,814.745,855.595,811.729,0.000,0.000,0
1510776532.321,819.886,815.225,856.212,826.877,0.000,0.000,0
1510776532.323,821.393,818.652,855.870,831.606,0.000,0.000,0
1510776532.325,830.509,823.313,855.732,842.847,0.000,0.000,0
1510776532.327,834.622,823.724,855.664,832.771,0.000,0.000,0
1510776532.329,827.219,823.998,857.583,820.982,0.000,0.000,0
1510776532.331,815.430,819.954,856.007,809.947,0.000,0.000,0
1510776532.333,815.499,819.200,854.499,797.884,0.000,0.000,0
1510776532.335,819.954,818.857,854.704,796.308,0.000,0.000,0
1510776532.337,823.450,817.418,855.527,802.750,0.000,0.000,0
1510776532.339,829.276,818.515,859.708,806.794,0.000,0.000,0
1510776532.341,831.400,818.172,858.817,809.879,0.000,0.000,0
1510776532.343,827.151,818.789,856.966,822.147,0.000,0.000,0
1510776532.345,833.662,823.861,857.926,842.436,0.000,0.000,0
1510776532.347,835.924,825.300,857.994,848.604,0.000,0.000,0
1510776532.349,834.211,824.478,858.337,844.149,0.000,0.000,0
1510776532.351,828.111,822.079,857.926,828.453,0.000,0.000,0
1510776532.353,821.119,820.845,857.446,811.387,0.000,0.000,0
1510776532.355,814.608,822.353,857.309,805.424,0.000,0.000,0
1510776532.357,818.241,821.531,856.966,808.919,0.000,0.000,0
1510776532.359,823.313,820.640,857.103,818.652,0.000,0.000,0
1510776532.361,827.562,818.035,853.676,817.281,0.000,0.000,0
1510776532.363,835.307,818.515,853.128,820.914,0.000,0.000,0
1510776532.365,832.908,818.309,854.019,834.759,0.000,0.000,0
1510776532.367,834.142,820.160,853.471,837.226,0.000,0.000,0
1510776532.369,837.706,822.627,856.966,832.223,0.000,0.000,0
1510776532.371,832.908,824.272,860.119,819.200,0.000,0.000,0
1510776532.373,823.381,822.010,859.434,802.956,0.000,0.000,0
1510776532.375,816.733,824.546,859.913,794.388,0.000,0.000,0
1510776532.377,821.119,823.861,860.256,790.345,0.000,0.000,0
1510776532.379,822.490,821.531,859.160,797.747,0.000,0.000,0
1510776532.381,830.989,823.313,862.175,811.935,0.000,0.000,0
1510776532.383,834.553,823.518,863.066,827.494,0.000,0.000,0
1510776532.385,835.444,819.269,860.119,847.439,0.000,0.000,0
1510776532.387,842.161,817.144,861.147,861.421,0.000,0.000,0
1510776532.389,834.622,817.692,862.244,858.611,0.000,0.000,0
1510776532.391,822.353,818.926,864.094,836.267,0.000,0.000,0
1510776532.393,814.951,818.926,862.792,815.088,0.000,0.000,0
1510776532.395,814.814,823.587,864.094,802.819,0.000,0.000,0
1510776532.397,818.378,823.792,860.805,789.385,0.000,0.000,0
1510776532.399,820.914,823.861,859.160,790.893,0.000,0.000,0
1510776532.401,823.450,824.204,859.434,807.617,0.000,0.000,0
1510776532.403,831.606,824.272,860.051,830.647,0.000,0.000,0
1510776532.405,837.980,826.534,860.188,848.878,0.000,0.000,0
1510776532.407,837.021,824.478,856.829,848.878,0.000,0.000,0
1510776532.409,830.235,822.079,854.979,843.052,0.000,0.000,0
1510776532.411,829.481,820.640,854.704,831.469,0.000,0.000,0
1510776532.413,827.494,822.079,857.309,822.285,0.000,0.000,0
1510776532.415,822.216,822.490,860.462,816.596,0.000,0.000,0
1510776532.417,818.857,822.696,860.873,819.474,0.000,0.000,0
1510776532.419,823.930,823.450,859.228,824.341,0.000,0.000,0
1510776532.421,835.239,824.478,858.200,831.675,0.000,0.000,0
1510776532.423,839.283,824.204,858.474,840.654,0.000,0.000,0
1510776532.425,830.030,824.135,858.885,851.140,0.000,0.000,0
1510776532.427,829.961,827.562,859.913,848.056,0.000,0.000,0
1510776532.429,829.893,829.481,858.406,839.214,0.000,0.000,0
1510776532.431,830.235,829.413,857.035,823.313,0.000,0.000,0
1510776532.433,829.344,826.671,858.200,811.661,0.000,0.000,0
1510776532.435,826.671,821.119,857.926,804.532,0.000,0.000,0
1510776532.437,823.930,818.378,857.035,810.838,0.000,0.000,0
1510776532.439,825.163,824.341,859.502,814.197,0.000,0.000,0
1510776532.441,823.655,824.341,856.966,818.104,0.000,0.000,0
1510776532.443,825.575,821.668,856.898,827.836,0.000,0.000,0
1510776532.445,832.292,823.655,855.801,847.508,0.000,0.000,0
1510776532.447,839.214,827.905,857.789,855.801,0.000,0.000,0
1510776532.449,832.840,827.562,856.966,847.028,0.000,0.000,0
1510776532.451,821.119,826.603,857.789,828.933,0.000,0.000,0
1510776532.453,817.624,824.478,859.022,814.334,0.000,0.000,0
1510776532.455,818.172,823.998,860.256,809.125,0.000,0.000,0
1510776532.457,819.063,823.861,858.268,809.947,0.000,0.000,0
1510776532.459,822.147,825.095,859.434,808.097,0.000,0.000,0
1510776532.461,822.285,824.341,859.639,804.944,0.000,0.000,0
1510776532.463,822.010,821.051,858.337,815.568,0.000,0.000,0
1510776532.465,829.755,822.901,859.708,838.460,0.000,0.000,0
1510776532.467,831.743,825.095,860.462,856.692,0.000,0.000,0
1510776532.469,829.550,826.397,861.833,852.237,0.000,0.000,0
1510776532.471,818.104,825.300,860.805,831.332,0.000,0.000,0
1510776532.473,810.221,824.958,860.942,807.548,0.000,0.000,0
1510776532.475,809.399,827.425,861.901,791.647,0.000,0.000,0
1510776532.477,805.355,822.627,855.732,792.469,0.000,0.000,0
1510776532.479,812.483,821.256,856.829,807.685,0.000,0.000,0
1510776532.481,824.958,823.244,860.462,820.571,0.000,0.000,0
1510776532.483,832.703,821.736,861.627,834.074,0.000,0.000,0
1510776532.485,836.267,820.777,860.599,850.523,0.000,0.000,0
1510776532.487,835.102,821.462,860.530,858.474,0.000,0.000,0
1510776532.489,825.163,820.708,861.010,852.305,0.000,0.000,0
1510776532.491,816.733,821.188,862.861,835.924,0.000,0.000,0
1510776532.493,813.854,821.599,863.889,808.439,0.000,0.000,0
1510776532.495,808.234,821.873,864.300,788.905,0.000,0.000,0
1510776532.497,808.097,821.462,861.490,793.018,0.000,0.000,0
1510776532.499,815.293,821.531,862.655,809.399,0.000,0.000,0
1510776532.501,823.792,820.914,862.998,826.945,0.000,0.000,0
1510776532.503,830.304,821.668,863.820,839.420,0.000,0.000,0
1510776532.505,838.734,822.353,864.163,851.209,0.000,0.000,0
1510776532.507,837.638,824.752,865.191,857.926,0.000,0.000,0
1510776532.509,828.111,824.272,863.135,838.529,0.000,0.000,0
1510776532.511,813.785,823.176,861.079,816.253,0.000,0.000,0
1510776532.513,809.536,824.409,861.833,802.476,0.000,0.000,0
1510776532.515,811.935,824.409,860.805,796.102,0.000,0.000,0
1510776532.517,805.903,822.353,859.639,798.227,0.000,0.000,0
1510776532.519,806.452,821.188,856.898,800.214,0.000,0.000,0
1510776532.521,817.829,823.450,856.966,814.128,0.000,0.000,0
1510776532.523,825.575,824.683,856.966,828.522,0.000,0.000,0
1510776532.525,831.675,825.506,859.365,838.117,0.000,0.000,0
1510776532.527,832.154,822.696,858.748,830.235,0.000,0.000,0
1510776532.529,826.808,822.901,857.994,821.942,0.000,0.000,0
1510776532.531,820.503,822.901,860.188,814.677,0.000,0.000,0
1510776532.533,817.487,822.901,859.091,803.436,0.000,0.000,0
1510776532.535,814.677,821.805,857.994,795.554,0.000,0.000,0
1510776532.537,817.281,819.611,858.817,800.146,0.000,0.000,0
1510776532.539,823.176,818.515,857.583,806.246,0.000,0.000,0
1510776532.541,827.973,822.079,859.708,816.870,0.000,0.000,0
1510776532.543,822.490,819.817,857.789,813.580,0.000,0.000,0
1510776532.545,822.147,820.434,856.212,826.671,0.000,0.000,0
1510776532.547,825.163,820.091,855.184,839.557,0.000,0.000,0
1510776532.549,826.603,815.636,856.075,839.420,0.000,0.000,0
1510776532.551,821.942,811.249,856.349,828.864,0.000,0.000,0
1510776532.553,819.954,815.499,856.281,812.072,0.000,0.000,0
1510776532.555,819.954,819.954,856.966,797.404,0.000,0.000,0
1510776532.557,821.531,825.849,857.926,799.803,0.000,0.000,0
1510776532.559,818.857,826.534,856.829,791.578,0.000,0.000,0
1510776532.561,816.047,824.615,855.732,804.807,0.000,0.000,0
1510776532.563,821.119,824.889,855.527,823.792,0.000,0.000,0
1510776532.565,835.993,826.260,858.131,847.233,0.000,0.000,0
1510776532.567,842.161,825.575,857.994,855.870,0.000,0.000,0
1510776532.569,834.965,823.039,856.692,847.850,0.000,0.000,0
1510776532.571,824.958,821.599,854.704,829.344,0.000,0.000,0
1510776532.573,815.705,825.026,852.854,807.206,0.000,0.000,0
1510776532.575,807.548,823.792,850.044,779.652,0.000,0.000,0
1510776532.577,812.346,823.313,850.592,775.471,0.000,0.000,0
1510776532.579,815.499,817.555,847.645,784.587,0.000,0.000,0
1510776532.581,824.821,819.886,850.181,808.782,0.000,0.000,0
1510776532.583,829.413,820.091,851.072,825.300,0.000,0.000,0
1510776532.585,834.005,820.503,851.689,845.383,0.000,0.000,0
1510776532.587,838.803,823.313,851.963,856.829,0.000,0.000,0
1510776532.589,833.251,825.232,852.648,852.305,0.000,0.000,0
1510776532.591,827.699,825.232,851.209,836.130,0.000,0.000,0
1510776532.593,827.288,825.849,851.757,813.511,0.000,0.000,0
1510776532.595,823.313,827.631,852.854,796.719,0.000,0.000,0
1510776532.597,819.474,824.272,850.181,799.460,0.000,0.000,0
1510776532.599,817.075,824.204,852.922,811.866,0.000,0.000,0
1510776532.601,820.228,823.313,854.088,824.752,0.000,0.000,0
1510776532.603,825.575,822.010,854.979,836.404,0.000,0.000,0
1510776532.605,835.307,823.450,857.377,852.031,0.000,0.000,0
1510776532.607,840.996,821.256,854.430,844.492,0.000,0.000,0
1510776532.609,833.662,818.720,852.922,833.936,0.000,0.000,0
1510776532.611,818.857,815.430,852.443,822.764,0.000,0.000,0
1510776532.613,810.496,814.951,853.608,812.757,0.000,0.000,0
1510776532.615,810.770,818.652,853.882,804.944,0.000,0.000,0
1510776532.617,815.636,819.749,855.184,809.742,0.000,0.000,0
1510776532.619,816.596,818.309,852.854,814.128,0.000,0.000,0
1510776532.621,820.160,819.337,852.168,819.954,0.000,0.000,0
1510776532.623,825.986,821.531,851.003,833.457,0.000,0.000,0
1510776532.625,827.699,820.023,850.455,848.467,0.000,0.000,0
1510776532.627,825.575,819.337,850.935,840.174,0.000,0.000,0
1510776532.629,826.328,819.886,852.305,826.603,0.000,0.000,0
1510776532.631,822.353,820.297,851.552,809.536,0.000,0.000,0
1510776532.633,818.241,823.313,850.729,799.392,0.000,0.000,0
1510776532.635,818.926,825.300,850.729,794.114,0.000,0.000,0
1510776532.637,820.160,824.752,850.181,795.485,0.000,0.000,0
1510776532.639,823.518,825.506,849.906,799.872,0.000,0.000,0
1510776532.641,830.167,824.341,850.249,804.670,0.000,0.000,0
1510776532.643,833.799,822.559,849.769,818.926,0.000,0.000,0
1510776532.645,835.787,819.269,849.701,839.968,0.000,0.000,0
1510776532.647,838.255,820.777,850.592,852.168,0.000,0.000,0
1510776532.649,835.239,822.833,849.906,846.959,0.000,0.000,0
1510776532.651,831.606,822.696,848.878,831.332,0.000,0.000,0
1510776532.653,825.917,822.490,848.673,816.664,0.000,0.000,0
1510776532.655,822.559,822.010,849.975,808.851,0.000,0.000,0
1510776532.657,823.998,819.611,851.483,809.604,0.000,0.000,0
1510776532.659,826.808,820.845,852.854,815.568,0.000,0.000,0
1510776532.661,837.569,825.643,852.237,816.184,0.000,0.000,0
1510776532.663,839.900,828.042,852.580,824.409,0.000,0.000,0
1510776532.665,833.320,826.054,851.346,832.086,0.000,0.000,0
1510776532.667,827.699,826.603,851.209,837.980,0.000,0.000,0
1510776532.669,826.603,825.300,852.443,834.142,0.000,0.000,0
1510776532.671,823.039,825.232,853.471,826.054,0.000,0.000,0
1510776532.673,819.200,821.256,851.620,801.517,0.000,0.000,0
1510776532.675,817.487,820.708,851.346,789.522,0.000,0.000,0
1510776532.677,817.418,820.708,851.209,795.485,0.000,0.000,0
1510776532.679,818.926,821.942,853.813,809.467,0.000,0.000,0
1510776532.681,821.873,821.393,852.785,821.736,0.000,0.000,0
1510776532.683,822.147,821.325,851.689,827.082,0.000,0.000,0
1510776532.685,826.671,821.051,851.414,840.379,0.000,0.000,0
1510776532.687,831.195,821.668,852.717,853.265,0.000,0.000,0
1510776532.689,831.126,823.450,852.168,850.935,0.000,0.000,0
1510776532.691,832.154,825.369,851.277,836.198,0.000,0.000,0
1510776532.693,827.219,825.232,852.511,822.559,0.000,0.000,0
1510776532.695,817.281,822.216,853.950,802.888,0.000,0.000,0
1510776532.697,818.995,822.764,854.704,791.167,0.000,0.000,0
1510776532.699,822.901,821.462,851.963,788.425,0.000,0.000,0
1510776532.701,823.587,821.256,851.894,805.012,0.000,0.000,0
1510776532.703,833.525,818.515,853.128,823.518,0.000,0.000,0
1510776532.705,835.993,818.035,854.156,841.339,0.000,0.000,0
1510776532.707,833.868,820.023,852.991,851.689,0.000,0.000,0
1510776532.709,834.965,821.599,852.785,842.504,0.000,0.000,0
1510776532.711,827.357,819.680,851.277,816.870,0.000,0.000,0
1510776532.713,824.204,818.926,855.116,811.387,0.000,0.000,0
1510776532.715,815.088,813.991,851.277,797.336,0.000,0.000,0
1510776532.717,813.717,818.446,851.826,802.476,0.000,0.000,0
1510776532.719,822.422,820.297,851.757,810.084,0.000,0.000,0
1510776532.721,830.167,821.942,850.592,822.010,0.000,0.000,0
1510776532.723,829.344,823.176,851.894,834.965,0.000,0.000,0
1510776532.725,825.643,821.531,850.044,847.987,0.000,0.000,0
1510776532.727,824.546,824.752,853.334,854.499,0.000,0.000,0
1510776532.729,818.583,820.365,852.648,831.195,0.000,0.000,0
1510776532.731,817.007,819.954,853.608,817.144,0.000,0.000,0
1510776532.733,815.225,823.313,854.225,809.742,0.000,0.000,0
1510776532.735,816.870,824.204,855.321,804.944,0.000,0.000,0
1510776532.737,817.829,822.696,853.745,806.726,0.000,0.000,0
1510776532.739,821.119,824.821,856.898,814.882,0.000,0.000,0
1510776532.741,824.204,821.599,855.664,818.035,0.000,0.000,0
1510776532.743,828.864,819.269,852.785,820.777,0.000,0.000,0
1510776532.745,830.509,818.241,854.019,838.666,0.000,0.000,0
1510776532.747,837.569,819.954,855.184,847.987,0.000,0.000,0
1510776532.749,839.214,820.845,856.144,848.604,0.000,0.000,0
1510776532.751,835.719,822.010,856.966,837.706,0.000,0.000,0
1510776532.753,823.655,821.256,858.063,818.035,0.000,0.000,0
1510776532.755,818.172,820.160,859.091,807.137,0.000,0.000,0
1510776532.757,823.176,819.817,858.885,808.028,0.000,0.000,0
1510776532.759,828.796,818.857,859.297,818.652,0.000,0.000,0
1510776532.761,831.263,818.789,859.022,820.708,0.000,0.000,0
1510776532.763,831.675,820.777,856.281,824.135,0.000,0.000,0
1510776532.765,839.283,819.406,854.841,839.762,0.000,0.000,0
1510776532.767,843.601,818.515,857.240,855.458,0.000,0.000,0
1510776532.769,839.283,820.297,856.692,855.938,0.000,0.000,0
1510776532.771,834.074,823.039,856.692,842.847,0.000,0.000,0
1510776532.773,825.437,819.954,854.225,806.040,0.000,0.000,0
1510776532.775,821.942,821.188,853.539,782.599,0.000,0.000,0
1510776532.777,821.599,821.805,852.785,788.974,0.000,0.000,3
1510776532.779,822.147,822.216,853.471,807.206,0.000,0.000,0
1510776532.781,827.836,822.627,855.527,822.559,0.000,0.000,0
1510776532.783,827.699,820.914,854.773,829.893,0.000,0.000,0
1510776532.785,829.207,823.244,855.116,845.177,0.000,0.000,0
1510776532.787,831.812,824.204,855.870,852.100,0.000,0.000,0
1510776532.789,828.727,823.313,855.732,844.149,0.000,0.000,0
1510776532.791,830.647,824.752,859.365,836.198,0.000,0.000,0
1510776532.793,820.297,823.244,857.857,817.213,0.000,0.000,0
1510776532.795,805.424,818.309,853.539,797.267,0.000,0.000,0
1510776532.797,810.290,820.845,855.321,798.912,0.000,0.000,0
1510776532.799,813.306,817.624,854.362,806.863,0.000,0.000,0
1510776532.801,818.309,816.596,853.265,816.870,0.000,0.000,0
1510776532.803,820.160,816.047,852.168,820.365,0.000,0.000,0
1510776532.805,832.497,819.817,856.281,838.734,0.000,0.000,0
1510776532.807,836.610,818.104,855.527,839.488,0.000,0.000,0
1510776532.809,832.497,818.583,855.321,831.606,0.000,0.000,0
1510776532.811,824.067,817.966,855.732,808.576,0.000,0.000,0
1510776532.813,821.462,817.692,854.499,791.990,0.000,0.000,0
1510776532.815,819.200,819.680,852.717,790.413,0.000,0.000,0
1510776532.817,824.958,819.269,852.991,801.585,0.000,0.000,0
1510776532.819,829.755,818.926,855.116,810.701,0.000,0.000,0
1510776532.821,833.251,818.926,853.471,823.107,0.000,0.000,0
1510776532.823,840.585,823.792,851.072,839.694,0.000,0.000,0
1510776532.825,848.467,827.562,849.701,857.652,0.000,0.000,0
1510776532.827,851.620,825.369,852.511,860.873,0.000,0.000,0
1510776532.829,847.713,821.873,855.664,849.358,0.000,0.000,0
1510776532.831,834.828,817.144,857.583,829.618,0.000,0.000,0
1510776532.833,818.378,813.991,857.994,807.343,0.000,0.000,0
1510776532.835,810.084,813.785,856.144,789.865,0.000,0.000,0
1510776532.837,813.306,814.745,856.624,794.320,0.000,0.000,0
1510776532.839,814.128,815.225,857.857,800.831,0.000,0.000,0
1510776532.841,814.265,814.128,858.063,803.230,0.000,0.000,0
1510776532.843,814.882,813.511,855.047,808.988,0.000,0.000,0
1510776532.845,819.406,812.894,855.595,824.478,0.000,0.000,0
1510776532.847,825.232,815.773,858.954,845.109,0.000,0.000,0
1510776532.849,818.926,815.430,859.502,845.383,0.000,0.000,0
1510776532.851,812.483,815.293,858.611,828.590,0.000,0.000,0
1510776532.853,807.754,815.842,860.325,809.742,0.000,0.000,0
1510776532.855,811.455,817.075,859.708,800.420,0.000,0.000,0
1510776532.857,816.321,816.116,857.652,800.489,0.000,0.000,0
1510776532.859,812.415,815.568,856.829,798.227,0.000,0.000,0
1510776532.861,814.539,814.677,855.458,797.953,0.000,0.000,0
1510776532.863,814.608,811.249,856.075,807.343,0.000,0.000,0
1510776532.865,818.309,811.249,856.007,827.082,0.000,0.000,0
1510776532.867,820.365,814.197,856.418,840.448,0.000,0.000,0
1510776532.869,817.898,814.197,855.253,840.722,0.000,0.000,0
1510776532.871,822.833,812.963,853.813,828.659,0.000,0.000,0
1510776532.873,820.434,813.785,854.430,807.137,0.000,0.000,0
1510776532.875,808.645,814.402,855.664,787.260,0.000,0.000,0
1510776532.877,807.274,810.084,852.031,781.229,0.000,0.000,0
1510776532.879,811.387,809.399,851.346,792.264,0.000,0.000,0
1510776532.881,814.814,809.673,854.362,812.415,0.000,0.000,0
1510776532.883,815.088,810.975,854.019,824.889,0.000,0.000,0
1510776532.885,818.789,813.785,855.458,843.121,0.000,0.000,0
1510776532.887,822.627,814.265,854.293,850.729,0.000,0.000,0
1510776532.889,816.253,816.184,853.402,841.750,0.000,0.000,0
1510776532.891,806.520,817.213,854.773,812.552,0.000,0.000,0
1510776532.893,803.641,816.390,853.813,786.643,0.000,0.000,0
1510776532.895,806.177,812.141,854.019,777.596,0.000,0.000,0
1510776532.897,809.810,813.032,855.870,788.220,0.000,0.000,0
1510776532.899,811.798,814.128,854.499,802.202,0.000,0.000,0
1510776532.901,814.951,815.293,856.281,819.954,0.000,0.000,0
1510776532.903,818.857,815.156,855.321,828.453,0.000,0.000,0
1510776532.905,822.353,816.321,853.882,838.803,0.000,0.000,0
1510776532.907,824.135,817.281,854.979,838.323,0.000,0.000,0
1510776532.909,824.821,815.705,855.664,832.977,0.000,0.000,0
1510776532.911,823.518,814.060,851.963,819.269,0.000,0.000,0
1510776532.913,825.095,816.870,854.019,811.318,0.000,0.000,0
1510776532.915,818.309,816.664,853.128,799.598,0.000,0.000,0
1510776532.917,825.232,818.515,853.128,801.928,0.000,0.000,0
1510776532.919,828.727,818.857,854.156,812.757,0.000,0.000,0
1510776532.921,827.494,815.293,853.539,825.095,0.000,0.000,0
1510776532.923,832.429,814.402,854.430,833.251,0.000,0.000,0
1510776532.925,837.158,814.471,854.019,835.993,0.000,0.000,0
1510776532.927,838.734,813.169,853.128,839.283,0.000,0.000,0
1510776532.929,835.581,810.358,852.648,838.734,0.000,0.000,0
1510776532.931,825.300,807.822,855.938,832.429,0.000,0.000,0
1510776532.933,813.717,812.209,853.128,820.160,0.000,0.000,0
1510776532.935,816.253,817.966,851.552,804.670,0.000,0.000,0
1510776532.937,818.720,820.777,851.414,806.452,0.000,0.000,0
1510776532.939,821.119,819.063,855.253,813.991,0.000,0.000,0
1510776532.941,823.244,814.402,852.854,812.620,0.000,0.000,0
1510776532.943,820.708,812.620,850.455,819.886,0.000,0.000,0
1510776532.945,823.313,814.128,849.495,833.731,0.000,0.000,0
1510776532.947,832.154,818.995,853.882,847.850,0.000,0.000,0
1510776532.949,831.538,818.926,854.636,850.660,0.000,0.000,0
1510776532.951,820.845,816.390,853.676,838.666,0.000,0.000,0
1510776532.953,815.568,815.499,853.745,822.490,0.000,0.000,0
1510776532.955,809.056,813.443,854.636,809.947,0.000,0.000,0
1510776532.957,810.564,811.729,854.156,807.754,0.000,0.000,0
1510776532.959,822.285,814.608,855.253,805.561,0.000,0.000,0
1510776532.961,826.603,817.144,854.019,805.629,0.000,0.000,0
1510776532.963,824.821,817.829,853.059,815.910,0.000,0.000,0
1510776532.965,825.575,817.350,853.608,837.501,0.000,0.000,0
1510776532.967,830.852,817.213,854.567,846.342,0.000,0.000,0
1510776532.969,820.023,815.019,853.196,840.722,0.000,0.000,0
1510776532.971,812.209,814.265,851.894,826.466,0.000,0.000,0
1510776532.973,811.524,817.281,852.511,812.963,0.000,0.000,0
1510776532.975,809.330,816.664,853.334,795.828,0.000,0.000,0
1510776532.977,813.374,817.281,854.088,791.578,0.000,0.000,0
1510776532.979,813.854,814.060,851.552,797.747,0.000,0.000,0
1510776532.981,817.555,813.100,853.745,816.047,0.000,0.000,0
1510776532.983,818.515,811.866,853.676,827.494,0.000,0.000,0
1510776532.985,825.026,812.278,853.813,842.024,0.000,0.000,0
1510776532.987,834.896,814.608,854.019,856.281,0.000,0.000,0
1510776532.989,833.183,817.487,855.390,853.608,0.000,0.000,0
1510776532.991,826.328,822.833,856.281,831.332,0.000,0.000,0
1510776532.993,810.153,821.119,850.386,795.417,0.000,0.000,0
1510776532.995,809.742,820.845,851.277,788.220,0.000,0.000,0
1510776532.997,812.346,821.188,852.237,794.046,0.000,0.000,0
1510776532.999,809.193,817.281,852.031,798.912,0.000,0.000,0
1510776533.001,814.197,816.116,851.003,812.072,0.000,0.000,0
1510776533.003,822.079,818.378,850.112,827.973,0.000,0.000,0
1510776533.005,826.603,817.761,851.483,841.476,0.000,0.000,0
1510776533.007,825.232,815.088,850.592,842.504,0.000,0.000,0
1510776533.009,822.079,814.471,850.729,841.956,0.000,0.000,0
1510776533.011,821.599,812.141,849.701,829.344,0.000,0.000,0
1510776533.013,812.003,815.636,853.608,816.459,0.000,0.000,0
1510776533.015,807.274,817.007,855.047,806.452,0.000,0.000,0
1510776533.017,806.657,815.088,852.031,806.315,0.000,0.000,0
1510776533.019,810.496,814.882,851.346,810.838,0.000,0.000,0
1510776533.021,820.365,814.951,851.826,821.736,0.000,0.000,0
1510776533.023,819.474,813.991,851.963,833.662,0.000,0.000,0
1510776533.025,821.805,814.334,851.826,846.822,0.000,0.000,0
1510776533.027,826.671,816.390,852.580,848.604,0.000,0.000,0
1510776533.029,828.316,815.019,851.757,835.170,0.000,0.000,0
1510776533.031,823.381,812.963,848.810,820.091,0.000,0.000,0
1510776533.033,820.845,811.798,850.181,806.589,0.000,0.000,0
1510776533.035,812.894,813.511,850.935,796.787,0.000,0.000,0
1510776533.037,809.673,817.624,852.237,798.569,0.000,0.000,0
1510776533.039,809.056,818.583,851.277,789.453,0.000,0.000,0
1510776533.041,812.141,819.817,849.632,797.199,0.000,0.000,0
1510776533.043,819.817,819.749,847.028,810.770,0.000,0.000,0
1510776533.045,823.244,819.543,847.370,827.082,0.000,0.000,0
1510776533.047,830.852,822.490,848.399,844.218,0.000,0.000,0
1510776533.049,836.884,821.051,849.153,845.726,0.000,0.000,0
1510776533.051,832.429,820.708,850.181,837.021,0.000,0.000,0
1510776533.053,822.901,818.446,850.044,814.608,0.000,0.000,0
1510776533.055,811.798,817.007,850.729,794.800,0.000,0.000,0
1510776533.057,806.452,817.624,855.458,794.868,0.000,0.000,0
1510776533.059,801.311,813.237,852.237,794.594,0.000,0.000,0
1510776533.061,804.327,814.334,852.305,798.775,0.000,0.000,0
1510776533.063,810.701,816.733,852.854,805.355,0.000,0.000,0
1510776533.065,812.003,817.007,853.471,816.047,0.000,0.000,0
1510776533.067,806.863,812.209,851.826,824.752,0.000,0.000,0
1510776533.069,804.875,813.991,852.443,822.627,0.000,0.000,0
1510776533.071,808.988,815.499,853.813,812.278,0.000,0.000,0
1510776533.073,808.851,817.418,854.225,788.014,0.000,0.000,0
1510776533.075,799.940,816.321,852.785,765.053,0.000,0.000,0
1510776533.077,796.582,814.814,853.539,760.118,0.000,0.000,0
1510776533.079,798.912,812.552,854.636,766.629,0.000,0.000,0
1510776533.081,806.246,810.975,853.676,779.172,0.000,0.000,0
1510776533.083,815.019,814.060,853.539,801.311,0.000,0.000,0
1510776533.085,820.160,815.773,852.511,821.668,0.000,0.000,0
1510776533.087,819.543,813.306,852.031,837.226,0.000,0.000,0
1510776533.089,818.515,812.689,851.620,840.037,0.000,0.000,0
1510776533.091,817.761,813.580,851.757,816.938,0.000,0.000,0
1510776533.093,815.705,813.511,851.483,787.671,0.000,0.000,0
1510776533.095,815.362,806.520,851.620,776.362,0.000,0.000,0
1510776533.097,819.063,806.589,853.813,786.026,0.000,0.000,0
1510776533.099,818.652,809.879,853.676,794.663,0.000,0.000,0
1510776533.101,811.866,813.648,853.882,808.371,0.000,0.000,0
1510776533.103,814.334,814.814,850.798,820.914,0.000,0.000,0
1510776533.105,820.023,816.184,850.455,834.622,0.000,0.000,0
1510776533.107,822.490,815.773,851.963,840.516,0.000,0.000,0
1510776533.109,819.749,818.172,854.088,839.488,0.000,0.000,0
1510776533.111,818.446,816.664,853.882,824.821,0.000,0.000,0
1510776533.113,820.571,816.390,854.636,811.866,0.000,0.000,0
1510776533.115,814.677,815.568,854.019,802.956,0.000,0.000,0
1510776533.117,815.705,816.321,855.458,808.097,0.000,0.000,0
1510776533.119,818.035,814.334,854.910,814.402,0.000,0.000,0
1510776533.121,824.067,813.169,854.362,824.821,0.000,0.000,0
1510776533.123,829.344,813.785,855.253,833.799,0.000,0.000,0
1510776533.125,832.840,816.184,853.950,834.828,0.000,0.000,0
1510776533.127,830.509,815.636,854.841,843.532,0.000,0.000,0
1510776533.129,828.179,815.362,853.196,842.298,0.000,0.000,0
1510776533.131,824.889,817.555,853.334,833.114,0.000,0.000,0
1510776533.133,818.652,818.378,852.580,813.923,0.000,0.000,0
1510776533.135,815.019,818.378,852.168,799.872,0.000,0.000,0
1510776533.137,820.228,817.761,851.826,799.392,0.000,0.000,0
1510776533.139,825.643,820.777,854.567,804.327,0.000,0.000,0
1510776533.141,824.067,819.749,854.841,806.520,0.000,0.000,0
1510776533.143,827.425,817.281,853.402,811.935,0.000,0.000,0
1510776533.145,834.416,817.213,852.991,832.154,0.000,0.000,0
1510776533.147,843.875,823.176,855.047,851.757,0.000,0.000,0
1510776533.149,843.601,821.462,854.979,847.028,0.000,0.000,0
1510776533.151,826.054,819.269,854.567,832.086,0.000,0.000,0
1510776533.153,808.851,818.857,854.362,813.717,0.000,0.000,0
1510776533.155,808.782,819.063,855.390,800.763,0.000,0.000,0
1510776533.157,819.132,822.422,857.172,803.299,0.000,0.000,0
1510776533.159,822.970,825.095,854.567,786.506,0.000,0.000,0
1510776533.161,829.961,826.397,854.088,790.756,0.000,0.000,0
1510776533.163,830.578,823.792,853.471,807.822,0.000,0.000,0
1510776533.165,836.198,823.381,852.443,829.413,0.000,0.000,0
1510776533.167,834.348,822.696,851.689,846.754,0.000,0.000,0
1510776533.169,832.977,822.764,853.745,846.479,0.000,0.000,0
1510776533.171,831.743,822.764,854.156,837.158,0.000,0.000,0
1510776533.173,826.054,822.559,854.910,810.633,0.000,0.000,0
1510776533.175,825.849,823.930,854.430,786.232,0.000,0.000,0
1510776533.177,826.260,821.599,853.265,783.011,0.000,0.000,0
1510776533.179,826.877,822.833,854.979,799.255,0.000,0.000,0
1510776533.181,832.497,823.724,857.172,818.035,0.000,0.000,0
1510776533.183,832.703,823.381,857.652,832.017,0.000,0.000,0
1510776533.185,830.030,820.023,855.732,842.504,0.000,0.000,0
1510776533.187,832.497,817.966,855.458,851.483,0.000,0.000,0
1510776533.189,836.473,821.051,858.680,851.003,0.000,0.000,0
1510776533.191,834.690,824.752,861.421,830.372,0.000,0.000,0
1510776533.193,829.824,825.575,861.216,810.016,0.000,0.000,0
1510776533.195,815.568,825.300,856.555,793.840,0.000,0.000,0
1510776533.197,813.785,823.861,856.829,800.489,0.000,0.000,0
1510776533.199,824.683,820.365,857.103,811.455,0.000,0.000,0
1510776533.201,833.799,822.285,858.817,822.696,0.000,0.000,0
1510776533.203,830.852,824.409,861.421,833.251,0.000,0.000,0
1510776533.205,835.581,826.123,862.655,845.451,0.000,0.000,0
1510776533.207,838.392,825.712,860.462,847.302,0.000,0.000,0
1510776533.209,831.675,826.534,860.188,847.576,0.000,0.000,0
1510776533.211,824.615,826.328,858.748,838.460,0.000,0.000,0
1510776533.213,825.369,825.437,861.627,826.191,0.000,0.000,0
1510776533.215,820.845,824.135,862.724,815.910,0.000,0.000,0
1510776533.217,810.564,822.833,859.982,812.826,0.000,0.000,0
1510776533.219,810.496,821.942,856.624,812.963,0.000,0.000,0
1510776533.221,814.608,822.353,856.281,820.777,0.000,0.000,0
1510776533.223,820.091,822.010,858.131,833.183,0.000,0.000,0
1510776533.225,827.357,823.792,860.873,846.000,0.000,0.000,0
1510776533.227,830.304,822.216,857.789,835.993,0.000,0.000,0
1510776533.229,827.494,823.861,857.720,832.086,0.000,0.000,0
1510776533.231,818.857,823.450,857.515,827.151,0.000,0.000,0
1510776533.233,817.761,823.244,858.543,820.160,0.000,0.000,0
1510776533.235,815.430,821.256,858.474,803.916,0.000,0.000,0
1510776533.237,814.471,820.503,859.913,804.807,0.000,0.000,0
1510776533.239,816.527,822.764,863.820,811.935,0.000,0.000,0
1510776533.241,822.285,819.337,862.724,814.951,0.000,0.000,0
1510776533.243,828.590,811.455,859.639,818.515,0.000,0.000,0
1510776533.245,835.719,814.814,858.680,834.553,0.000,0.000,0
1510776533.247,837.021,825.849,861.421,849.290,0.000,0.000,0
1510776533.249,834.759,829.481,858.885,847.165,0.000,0.000,0
1510776533.251,828.933,830.989,858.337,838.940,0.000,0.000,0
1510776533.253,820.365,830.921,859.502,828.111,0.000,0.000,0
1510776533.255,816.116,830.372,859.228,809.330,0.000,0.000,0
1510776533.257,813.237,828.796,857.789,800.420,0.000,0.000,0
1510776533.259,818.720,826.877,856.418,799.803,0.000,0.000,0
1510776533.261,824.135,824.958,855.116,807.480,0.000,0.000,0
1510776533.263,832.566,827.288,860.051,832.429,0.000,0.000,0
1510776533.265,833.594,827.631,860.942,847.096,0.000,0.000,0
1510776533.267,834.690,830.372,859.228,852.717,0.000,0.000,0
1510776533.269,830.578,829.276,858.680,849.769,0.000,0.000,0
1510776533.271,824.409,829.276,858.337,842.436,0.000,0.000,0
1510776533.273,823.930,831.538,861.558,822.353,0.000,0.000,0
1510776533.275,819.337,828.659,860.942,794.937,0.000,0.000,0
1510776533.277,816.664,823.998,857.720,789.453,0.000,0.000,0
1510776533.279,815.430,822.627,856.624,797.336,0.000,0.000,0
1510776533.281,820.571,822.696,857.994,809.810,0.000,0.000,0
1510776533.283,832.360,821.736,858.200,825.506,0.000,0.000,0
1510776533.285,840.585,821.873,859.776,843.738,0.000,0.000,0
1510776533.287,838.803,818.652,861.421,855.801,0.000,0.000,0
1510776533.289,831.400,820.640,860.119,855.938,0.000,0.000,0
1510776533.291,827.219,827.014,861.216,848.399,0.000,0.000,0
1510776533.293,821.531,826.123,859.297,804.395,0.000,0.000,0
1510776533.295,823.039,827.014,860.599,790.070,0.000,0.000,0
1510776533.297,821.393,828.453,860.667,798.569,0.000,0.000,0
1510776533.299,821.393,828.385,859.571,805.355,0.000,0.000,0
1510776533.301,822.764,827.151,860.667,819.749,0.000,0.000,0
1510776533.303,826.534,825.506,861.216,835.376,0.000,0.000,0
1510776533.305,838.666,827.219,861.421,846.274,0.000,0.000,0
1510776533.307,837.021,824.683,859.708,842.367,0.000,0.000,0
1510776533.309,824.272,825.026,858.748,841.613,0.000,0.000,0
1510776533.311,816.938,824.341,855.047,827.494,0.000,0.000,0
1510776533.313,822.833,829.207,856.555,818.172,0.000,0.000,0
1510776533.315,817.007,828.042,856.075,806.863,0.000,0.000,0
1510776533.317,816.321,825.506,855.116,804.807,0.000,0.000,0
1510776533.319,819.474,824.135,854.225,812.209,0.000,0.000,0
1510776533.321,823.587,824.135,855.458,823.998,0.000,0.000,0
1510776533.323,828.316,823.244,856.212,837.706,0.000,0.000,0
1510776533.325,827.973,824.341,855.184,836.610,0.000,0.000,0
1510776533.327,825.026,822.627,853.950,841.545,0.000,0.000,0
1510776533.329,823.039,816.047,854.019,843.738,0.000,0.000,0
1510776533.331,826.328,816.459,855.390,837.912,0.000,0.000,0
1510776533.333,819.543,820.228,855.938,823.724,0.000,0.000,0
1510776533.335,813.237,825.575,854.704,807.411,0.000,0.000,0
1510776533.337,814.471,829.618,856.624,807.068,0.000,0.000,0
1510776533.339,816.733,827.905,857.720,813.923,0.000,0.000,0
1510776533.341,819.954,825.300,856.692,821.325,0.000,0.000,0
1510776533.343,823.518,825.300,855.047,829.687,0.000,0.000,0
1510776533.345,822.147,822.490,857.926,841.613,0.000,0.000,0
1510776533.347,817.555,818.378,855.938,835.993,0.000,0.000,0
1510776533.349,821.325,819.337,855.253,833.251,0.000,0.000,0
1510776533.351,823.244,824.889,854.019,826.191,0.000,0.000,0
1510776533.353,827.768,828.590,854.499,815.430,0.000,0.000,0
1510776533.355,825.437,826.671,853.882,805.766,0.000,0.000,0
1510776533.357,823.792,826.603,857.515,809.879,0.000,0.000,0
1510776533.359,821.325,827.288,856.486,791.578,0.000,0.000,0
1510776533.361,828.111,830.030,856.966,798.638,0.000,0.000,0
1510776533.363,829.687,829.413,855.390,817.350,0.000,0.000,0
1510776533.365,829.618,828.590,855.938,842.436,0.000,0.000,0
1510776533.367,832.566,823.244,857.240,857.652,0.000,0.000,0
1510776533.369,834.074,821.188,856.761,859.913,0.000,0.000,0
1510776533.371,827.288,825.986,856.007,845.726,0.000,0.000,0
1510776533.373,824.204,828.727,855.595,822.696,0.000,0.000,0
1510776533.375,817.281,825.575,856.898,803.436,0.000,0.000,0
1510776533.377,811.387,824.546,857.652,797.267,0.000,0.000,0
1510776533.379,815.019,825.712,858.063,806.452,0.000,0.000,0
1510776533.381,820.845,828.659,858.680,819.269,0.000,0.000,0
1510776533.383,822.833,828.111,856.829,829.344,0.000,0.000,0
1510776533.385,829.276,827.425,857.103,847.028,0.000,0.000,0
1510776533.387,830.578,826.603,857.035,857.515,0.000,0.000,0
1510776533.389,832.977,828.385,856.898,855.321,0.000,0.000,0
1510776533.391,826.397,824.889,854.019,835.924,0.000,0.000,0
1510776533.393,822.079,823.861,853.882,819.611,0.000,0.000,0
1510776533.395,819.200,824.683,854.704,810.975,0.000,0.000,0
1510776533.397,824.067,825.506,855.390,813.306,0.000,0.000,0
1510776533.399,833.114,826.260,854.704,820.023,0.000,0.000,0
1510776533.401,838.255,825.575,856.281,834.553,0.000,0.000,0
1510776533.403,835.924,822.216,854.910,842.984,0.000,0.000,0
1510776533.405,834.553,818.378,855.732,853.950,0.000,0.000,0
1510776533.407,838.460,817.829,857.240,859.708,0.000,0.000,0
1510776533.409,836.952,817.761,855.870,841.065,0.000,0.000,0
1510776533.411,833.045,818.378,854.773,829.755,0.000,0.000,0
1510776533.413,827.219,819.063,854.088,822.970,0.000,0.000,0
1510776533.415,821.393,818.035,855.732,814.197,0.000,0.000,0
1510776533.417,813.032,815.705,853.608,805.149,0.000,0.000,0
1510776533.419,815.773,816.801,852.305,805.903,0.000,0.000,0
1510776533.421,824.615,818.789,851.757,815.362,0.000,0.000,0
1510776533.423,829.824,824.135,852.922,826.671,0.000,0.000,0
1510776533.425,825.780,821.736,852.580,830.098,0.000,0.000,0
1510776533.427,820.914,816.733,851.894,836.267,0.000,0.000,0
1510776533.429,824.272,819.063,853.059,839.968,0.000,0.000,0
1510776533.431,825.369,821.668,852.580,835.856,0.000,0.000,0
1510776533.433,821.531,820.297,852.305,823.655,0.000,0.000,0
1510776533.435,814.539,821.393,851.620,809.536,0.000,0.000,0
1510776533.437,812.141,821.736,851.963,803.436,0.000,0.000,0
1510776533.439,812.963,819.817,852.580,806.863,0.000,0.000,0
1510776533.441,817.692,820.777,852.511,813.785,0.000,0.000,0
1510776533.443,822.970,822.559,853.334,820.640,0.000,0.000,0
1510776533.445,824.889,821.051,853.608,833.457,0.000,0.000,0
1510776533.447,830.852,821.256,852.991,850.935,0.000,0.000,0
1510776533.449,835.513,822.079,852.580,852.031,0.000,0.000,0
1510776533.451,835.170,822.422,851.894,842.915,0.000,0.000,0
1510776533.453,836.061,823.381,852.443,828.659,0.000,0.000,0
1510776533.455,836.884,823.381,849.906,818.446,0.000,0.000,0
1510776533.457,833.183,824.958,852.237,810.564,0.000,0.000,0
1510776533.459,830.578,823.724,852.580,804.807,0.000,0.000,0
1510776533.461,833.045,818.926,852.991,809.056,0.000,0.000,0
1510776533.463,828.248,817.281,855.870,826.808,0.000,0.000,0
1510776533.465,818.720,814.471,856.829,834.485,0.000,0.000,0
1510776533.467,812.346,814.197,855.321,837.843,0.000,0.000,0
1510776533.469,807.274,813.785,852.785,834.348,0.000,0.000,0
1510776533.471,807.960,812.689,851.757,826.945,0.000,0.000,0
1510776533.473,804.601,814.060,853.950,809.879,0.000,0.000,0
1510776533.475,797.884,813.991,855.870,785.615,0.000,0.000,0
1510776533.477,789.659,813.237,854.910,776.019,0.000,0.000,0
1510776533.479,788.083,813.306,856.898,784.587,0.000,0.000,0
1510776533.481,790.345,812.415,859.502,793.840,0.000,0.000,0
1510776533.483,791.990,809.536,859.434,798.844,0.000,0.000,0
1510776533.485,800.557,806.246,859.091,813.580,0.000,0.000,0
1510776533.487,803.573,809.330,859.639,828.385,0.000,0.000,0
1510776533.489,796.376,814.882,859.776,827.631,0.000,0.000,0
1510776533.491,783.559,813.580,855.253,796.993,0.000,0.000,0
1510776533.493,771.633,811.661,855.184,769.165,0.000,0.000,0
1510776533.495,772.661,807.891,853.471,757.651,0.000,0.000,0
1510776533.497,780.132,808.508,856.692,765.464,0.000,0.000,0
1510776533.499,784.519,810.084,857.377,776.431,0.000,0.000,0
1510776533.501,778.624,810.290,857.446,788.974,0.000,0.000,0
1510776533.503,779.584,811.935,856.555,798.021,0.000,0.000,0
1510776533.505,791.715,814.471,856.418,813.100,0.000,0.000,0
1510776533.507,796.308,816.047,857.789,832.703,0.000,0.000,0
1510776533.509,793.909,811.798,855.664,821.805,0.000,0.000,0
1510776533.511,789.248,809.399,855.732,804.327,0.000,0.000,0
1510776533.513,787.534,807.206,855.664,792.881,0.000,0.000,0
1510776533.515,788.083,810.633,856.829,788.014,0.000,0.000,0
1510776533.517,789.316,811.866,857.240,782.188,0.000,0.000,0
1510776533.519,794.251,810.907,858.268,790.482,0.000,0.000,0
1510776533.521,799.049,811.592,859.091,794.594,0.000,0.000,0
1510776533.523,801.037,809.193,859.434,804.121,0.000,0.000,0
1510776533.525,809.193,808.508,856.624,815.362,0.000,0.000,0
1510776533.527,813.717,809.399,855.458,831.195,0.000,0.000,0
1510776533.529,818.789,811.798,860.256,836.747,0.000,0.000,0
1510776533.531,813.169,812.209,860.942,826.397,0.000,0.000,0
1510776533.533,803.436,814.814,859.982,812.689,0.000,0.000,0
1510776533.535,800.831,818.035,859.228,801.928,0.000,0.000,0
1510776533.537,800.831,818.995,858.748,801.448,0.000,0.000,0
1510776533.539,805.081,817.555,858.543,805.149,0.000,0.000,0
1510776533.541,814.060,821.531,860.599,812.278,0.000,0.000,0
1510776533.543,810.221,818.995,858.543,800.009,0.000,0.000,0
1510776533.545,810.221,818.378,857.994,808.165,0.000,0.000,0
1510776533.547,816.664,817.213,857.103,824.889,0.000,0.000,0
1510776533.549,822.147,818.857,859.434,836.473,0.000,0.000,0
1510776533.551,820.982,820.503,859.434,832.223,0.000,0.000,0
1510776533.553,816.664,822.216,860.462,821.736,0.000,0.000,0
1510776533.555,806.589,822.901,860.530,796.513,0.000,0.000,0
1510776533.557,801.037,820.845,859.091,786.232,0.000,0.000,0
1510776533.559,804.395,818.241,856.555,795.622,0.000,0.000,0
1510776533.561,813.169,819.749,857.583,808.645,0.000,0.000,0
1510776533.563,820.160,821.393,860.051,827.151,0.000,0.000,0
1510776533.565,822.490,822.079,859.845,841.750,0.000,0.000,0
1510776533.567,827.425,823.518,859.160,853.539,0.000,0.000,0
1510776533.569,825.780,821.462,857.309,852.648,0.000,0.000,0
1510776533.571,822.559,819.406,856.349,843.395,0.000,0.000,0
1510776533.573,817.692,822.147,858.406,831.263,0.000,0.000,0
1510776533.575,811.592,822.696,859.022,803.779,0.000,0.000,0
1510776533.577,817.692,819.680,857.446,790.893,0.000,0.000,0
1510776533.579,821.599,815.979,857.035,799.392,0.000,0.000,0
1510776533.581,822.010,818.789,857.515,817.213,0.000,0.000,0
1510776533.583,820.982,818.720,856.761,831.126,0.000,0.000,0
1510776533.585,821.942,817.692,855.390,839.557,0.000,0.000,0
1510776533.587,827.494,821.325,858.063,853.402,0.000,0.000,0
1510776533.589,828.316,823.518,858.748,851.209,0.000,0.000,0
1510776533.591,825.369,820.023,857.103,839.625,0.000,0.000,0
1510776533.593,822.901,818.309,855.253,819.886,0.000,0.000,0
1510776533.595,815.430,819.886,857.994,806.246,0.000,0.000,0
1510776533.597,809.467,817.487,857.720,807.274,0.000,0.000,0
1510776533.599,813.169,814.265,857.446,812.141,0.000,0.000,0
1510776533.601,820.160,814.677,858.406,820.571,0.000,0.000,0
1510776533.603,826.054,814.882,859.091,834.279,0.000,0.000,0
1510776533.605,829.824,814.539,859.228,845.177,0.000,0.000,0
1510776533.607,834.759,819.063,861.216,846.685,0.000,0.000,0
1510776533.609,832.429,819.543,861.421,837.158,0.000,0.000,0
1510776533.611,821.325,813.443,858.337,827.905,0.000,0.000,0
1510776533.613,817.144,812.278,859.228,820.640,0.000,0.000,0
1510776533.615,811.866,813.580,858.748,808.919,0.000,0.000,0
1510776533.617,818.172,816.390,857.857,804.121,0.000,0.000,0
1510776533.619,821.188,818.652,857.789,808.234,0.000,0.000,0
1510776533.621,823.587,820.297,858.680,818.583,0.000,0.000,0
1510776533.623,821.805,817.624,856.418,818.720,0.000,0.000,0
1510776533.625,821.668,817.418,856.349,823.039,0.000,0.000,0
1510776533.627,823.381,816.596,857.172,841.682,0.000,0.000,0
1510776533.629,836.061,819.063,862.175,859.091,0.000,0.000,0
1510776533.631,847.508,818.172,864.369,862.724,0.000,0.000,0
1510776533.633,846.548,819.269,862.244,847.987,0.000,0.000,0
1510776533.635,839.557,824.478,859.571,825.643,0.000,0.000,0
1510776533.637,828.453,822.833,855.801,810.427,0.000,0.000,0
1510776533.639,825.986,824.341,855.458,806.383,0.000,0.000,0
1510776533.641,823.450,823.381,853.745,806.383,0.000,0.000,0
1510776533.643,825.026,824.615,854.567,806.452,0.000,0.000,0
1510776533.645,821.805,819.954,851.003,804.464,0.000,0.000,0
1510776533.647,825.575,817.692,852.580,822.833,0.000,0.000,0
1510776533.649,827.631,819.749,853.745,832.771,0.000,0.000,0
1510776533.651,822.010,821.462,851.072,822.147,0.000,0.000,0
1510776533.653,816.596,821.393,846.891,803.847,0.000,0.000,0
1510776533.655,812.209,822.010,848.330,791.236,0.000,0.000,0
1510776533.657,809.742,820.777,848.536,774.923,0.000,0.000,0
1510776533.659,816.733,823.039,850.386,776.294,0.000,0.000,0
1510776533.661,816.596,821.873,847.233,779.035,0.000,0.000,0
1510776533.663,816.870,824.615,848.330,792.195,0.000,0.000,0
1510776533.665,819.132,823.381,844.081,811.318,0.000,0.000,0
1510776533.667,819.954,825.575,846.000,831.263,0.000,0.000,0
1510776533.669,817.898,824.546,845.451,837.432,0.000,0.000,0
1510776533.671,814.539,821.051,846.000,828.179,0.000,0.000,0
1510776533.673,811.318,822.764,849.564,816.253,0.000,0.000,0
1510776533.675,812.346,823.176,846.548,793.429,0.000,0.000,0
1510776533.677,814.060,824.067,846.137,775.677,0.000,0.000,0
1510776533.679,816.459,826.123,847.302,778.281,0.000,0.000,0
1510776533.681,820.091,825.712,846.479,784.587,0.000,0.000,0
1510776533.683,827.562,823.655,844.903,800.420,0.000,0.000,0
1510776533.685,825.095,822.764,846.205,824.889,0.000,0.000,0
1510776533.687,824.409,821.668,848.673,843.738,0.000,0.000,0
1510776533.689,825.369,822.422,847.713,848.399,0.000,0.000,0
1510776533.691,823.244,823.244,848.741,826.671,0.000,0.000,0
1510776533.693,816.047,825.369,848.878,805.766,0.000,0.000,0
1510776533.695,805.903,822.079,846.205,786.026,0.000,0.000,0
1510776533.697,812.826,821.462,847.439,786.986,0.000,0.000,0
1510776533.699,822.901,823.107,847.919,800.420,0.000,0.000,0
1510776533.701,825.369,821.188,844.492,803.710,0.000,0.000,0
1510776533.703,832.292,820.982,846.342,820.777,0.000,0.000,0
1510776533.705,828.179,819.611,846.822,831.538,0.000,0.000,0
1510776533.707,832.154,819.063,848.262,845.177,0.000,0.000,0
1510776533.709,836.610,820.365,850.455,840.928,0.000,0.000,0
1510776533.711,831.949,820.982,848.399,830.921,0.000,0.000,0
1510776533.713,832.360,827.973,849.838,816.253,0.000,0.000,0
1510776533.715,826.397,824.341,849.769,795.896,0.000,0.000,0
1510776533.717,818.995,816.116,847.439,794.731,0.000,0.000,0
1510776533.719,820.228,814.128,847.096,803.230,0.000,0.000,0
1510776533.721,825.917,817.418,849.153,815.773,0.000,0.000,0
1510776533.723,830.098,822.627,850.798,830.167,0.000,0.000,0
1510776533.725,832.977,825.437,850.660,836.747,0.000,0.000,0
1510776533.727,847.850,826.740,853.745,847.645,0.000,0.000,0
1510776533.729,851.140,826.945,852.717,853.471,0.000,0.000,0
1510776533.731,838.186,825.369,852.991,849.701,0.000,0.000,0
1510776533.733,825.917,820.365,851.826,836.130,0.000,0.000,0
1510776533.735,825.712,815.842,851.757,816.459,0.000,0.000,0
1510776533.737,827.151,817.350,850.523,813.169,0.000,0.000,0
1510776533.739,829.344,819.474,853.265,817.281,0.000,0.000,0
1510776533.741,826.123,818.515,851.414,806.657,0.000,0.000,0
1510776533.743,829.687,820.571,848.467,819.474,0.000,0.000,0
1510776533.745,830.921,823.861,845.246,835.033,0.000,0.000,0
1510776533.747,826.671,825.712,845.863,849.221,0.000,0.000,0
1510776533.749,825.300,822.559,844.972,851.689,0.000,0.000,0
1510776533.751,827.082,821.393,845.109,841.270,0.000,0.000,0
1510776533.753,827.288,820.228,845.451,826.740,0.000,0.000,0
1510776533.755,818.446,818.104,845.931,810.838,0.000,0.000,0
1510776533.757,819.611,821.462,849.153,799.529,0.000,0.000,0
1510776533.759,824.752,818.857,848.741,796.239,0.000,0.000,0
1510776533.761,829.344,817.761,847.370,804.395,0.000,0.000,0
1510776533.763,835.307,819.954,848.056,822.353,0.000,0.000,0
1510776533.765,842.915,817.829,848.262,838.597,0.000,0.000,0
1510776533.767,843.052,817.075,850.386,856.349,0.000,0.000,0
1510776533.769,837.912,817.144,848.947,858.474,0.000,0.000,0
1510776533.771,828.111,819.269,848.947,844.972,0.000,0.000,0
1510776533.773,825.369,820.297,850.660,821.051,0.000,0.000,0
1510776533.775,817.007,812.483,849.290,794.183,0.000,0.000,0
1510776533.777,813.580,807.548,845.657,790.482,0.000,0.000,0
1510776533.779,816.801,813.374,846.068,800.968,0.000,0.000,0
1510776533.781,824.889,821.599,848.741,818.720,0.000,0.000,0
1510776533.783,834.828,821.188,851.140,833.525,0.000,0.000,0
1510776533.785,839.488,817.829,849.290,842.847,0.000,0.000,0
1510776533.787,837.158,818.857,845.520,847.508,0.000,0.000,0
1510776533.789,829.961,822.490,846.000,847.782,0.000,0.000,0
1510776533.791,829.893,817.555,846.891,833.662,0.000,0.000,0
1510776533.793,833.114,819.200,848.810,819.886,0.000,0.000,0
1510776533.795,832.292,820.777,849.358,812.894,0.000,0.000,0
1510776533.797,829.276,823.930,849.769,814.745,0.000,0.000,0
1510776533.799,822.627,821.393,847.165,814.539,0.000,0.000,0
1510776533.801,825.917,822.147,845.657,817.761,0.000,0.000,0
1510776533.803,829.618,822.627,847.096,829.618,0.000,0.000,0
1510776533.805,832.634,822.422,847.987,844.012,0.000,0.000,0
1510776533.807,834.896,822.285,850.523,844.766,0.000,0.000,0
1510776533.809,835.376,820.091,849.358,835.170,0.000,0.000,0
1510776533.811,832.771,819.611,848.741,832.908,0.000,0.000,0
1510776533.813,831.332,820.982,850.729,830.030,0.000,0.000,0
1510776533.815,821.805,820.571,849.975,813.717,0.000,0.000,0
1510776533.817,819.132,819.611,849.701,805.286,0.000,0.000,0
1510776533.819,825.506,819.269,851.963,808.713,0.000,0.000,0
1510776533.821,829.961,819.063,853.882,821.942,0.000,0.000,0
1510776533.823,834.622,819.269,851.346,819.611,0.000,0.000,0
1510776533.825,844.081,823.107,850.729,829.344,0.000,0.000,0
1510776533.827,843.395,821.873,849.290,844.629,0.000,0.000,0
1510776533.829,841.476,820.777,852.168,853.813,0.000,0.000,0
1510776533.831,832.840,817.898,851.483,848.741,0.000,0.000,0
1510776533.833,832.634,819.200,851.963,834.896,0.000,0.000,0
1510776533.835,829.139,818.720,852.717,822.010,0.000,0.000,0
1510776533.837,827.219,820.365,854.499,821.531,0.000,0.000,0
1510776533.839,828.796,821.531,856.075,826.808,0.000,0.000,0
1510776533.841,830.852,821.393,856.144,821.599,0.000,0.000,0
1510776533.843,830.304,817.487,853.265,817.898,0.000,0.000,0
1510776533.845,833.662,816.116,849.632,829.824,0.000,0.000,0
1510776533.847,847.165,818.857,848.673,852.100,0.000,0.000,0
1510776533.849,856.144,822.010,848.947,867.727,0.000,0.000,0
1510776533.851,856.212,824.067,852.374,866.356,0.000,0.000,0
1510776533.853,840.654,825.300,855.116,848.536,0.000,0.000,0
1510776533.855,819.680,826.397,857.583,815.705,0.000,0.000,0
1510776533.857,804.875,824.683,857.652,791.236,0.000,0.000,0
1510776533.859,795.622,820.914,853.882,778.830,0.000,0.000,0
1510776533.861,800.009,819.474,853.402,789.179,0.000,0.000,0
1510776533.863,815.019,820.845,856.418,813.511,0.000,0.000,0
1510776533.865,826.054,821.599,857.103,832.771,0.000,0.000,0
1510776533.867,831.400,824.135,859.982,850.866,0.000,0.000,0
1510776533.869,818.926,825.095,858.954,841.339,0.000,0.000,0
1510776533.871,793.977,821.188,857.994,818.515,0.000,0.000,0
1510776533.873,784.998,816.733,859.228,800.694,0.000,0.000,0
1510776533.875,786.986,813.991,860.805,789.933,0.000,0.000,0
1510776533.877,792.743,811.661,859.365,767.246,0.000,0.000,0
1510776533.879,796.445,814.677,857.377,770.879,0.000,0.000,0
1510776533.881,797.953,815.773,856.555,778.418,0.000,0.000,0
1510776533.883,798.912,815.705,858.954,794.800,0.000,0.000,0
1510776533.885,805.355,817.007,861.010,818.789,0.000,0.000,0
1510776533.887,807.068,816.938,862.587,823.861,0.000,0.000,0
1510776533.889,799.255,816.596,858.406,817.692,0.000,0.000,0
1510776533.891,799.940,818.720,858.063,810.221,0.000,0.000,0
1510776533.893,801.996,819.474,858.954,805.355,0.000,0.000,0
1510776533.895,797.953,822.627,861.353,801.928,0.000,0.000,0
1510776533.897,798.706,822.353,858.611,796.650,0.000,0.000,0
1510776533.899,808.302,823.313,857.240,801.928,0.000,0.000,0
1510776533.901,819.749,823.861,858.885,815.568,0.000,0.000,0
1510776533.903,820.571,823.176,859.982,827.562,0.000,0.000,0
1510776533.905,820.503,821.599,859.228,836.815,0.000,0.000,0
1510776533.907,821.325,821.051,857.857,847.576,0.000,0.000,0
1510776533.909,818.241,821.668,858.406,832.566,0.000,0.000,0
1510776533.911,809.330,820.228,858.748,818.309,0.000,0.000,0
1510776533.913,809.056,818.995,857.035,808.439,0.000,0.000,0
1510776533.915,811.455,819.406,857.994,799.460,0.000,0.000,0
1510776533.917,808.028,818.515,857.926,793.360,0.000,0.000,0
1510776533.919,808.988,819.337,857.857,797.199,0.000,0.000,0
1510776533.921,811.044,817.829,857.652,800.009,0.000,0.000,0
1510776533.923,816.047,816.527,857.583,810.907,0.000,0.000,0
1510776533.925,819.817,815.156,856.829,826.603,0.000,0.000,0
1510776533.927,827.699,817.007,859.639,848.262,0.000,0.000,0
1510776533.929,831.949,820.228,860.873,858.268,0.000,0.000,0
1510776533.931,822.147,822.490,862.038,849.975,0.000,0.000,0
1510776533.933,813.785,822.010,859.639,824.478,0.000,0.000,0
1510776533.935,812.415,816.664,858.337,807.548,0.000,0.000,0
1510776533.937,817.075,817.418,860.051,807.137,0.000,0.000,0
1510776533.939,818.789,819.886,859.639,810.633,0.000,0.000,0
1510776533.941,825.506,819.269,858.748,810.427,0.000,0.000,0
1510776533.943,827.836,817.487,857.309,822.353,0.000,0.000,0
1510776533.945,829.413,820.503,858.817,830.578,0.000,0.000,0
1510776533.947,827.631,818.241,857.309,834.622,0.000,0.000,0
1510776533.949,832.292,814.265,856.212,837.569,0.000,0.000,0
1510776533.951,826.054,814.402,858.268,832.154,0.000,0.000,0
1510776533.953,810.290,816.321,857.172,810.975,0.000,0.000,0
1510776533.955,806.520,818.926,855.253,791.647,0.000,0.000,0
1510776533.957,810.496,818.926,852.374,785.478,0.000,0.000,0
1510776533.959,818.104,820.982,852.511,797.610,0.000,0.000,0
1510776533.961,826.466,821.668,853.265,811.455,0.000,0.000,0
1510776533.963,831.606,824.546,855.595,829.139,0.000,0.000,0
1510776533.965,824.821,821.873,854.841,840.791,0.000,0.000,0
1510776533.967,826.945,820.297,854.362,855.253,0.000,0.000,0
1510776533.969,824.409,819.406,854.225,853.539,0.000,0.000,0
1510776533.971,824.683,820.228,854.704,841.202,0.000,0.000,0
1510776533.973,819.886,818.926,854.362,824.889,0.000,0.000,0
1510776533.975,819.269,820.091,855.458,803.504,0.000,0.000,0
1510776533.977,819.817,820.160,854.841,795.074,0.000,0.000,0
1510776533.979,819.817,821.736,854.019,785.958,0.000,0.000,0
1510776533.981,817.213,821.119,853.402,792.401,0.000,0.000,0
1510776533.983,825.095,820.708,854.704,811.387,0.000,0.000,0
1510776533.985,834.279,820.160,855.595,830.030,0.000,0.000,0
1510776533.987,835.924,819.406,856.281,847.302,0.000,0.000,0
1510776533.989,834.485,820.160,854.773,833.457,0.000,0.000,0
1510776533.991,829.002,820.160,853.745,822.559,0.000,0.000,0
1510776533.993,823.861,818.583,851.277,808.097,0.000,0.000,0
1510776533.995,819.954,820.297,853.402,803.779,0.000,0.000,0
1510776533.997,820.228,822.079,855.664,807.411,0.000,0.000,0
1510776533.999,820.571,821.051,854.430,813.237,0.000,0.000,0
1510776534.001,820.845,818.172,854.567,818.104,0.000,0.000,0
1510776534.003,822.696,813.648,852.922,826.260,0.000,0.000,0
1510776534.005,821.942,815.910,853.539,838.871,0.000,0.000,0
1510776534.007,823.930,814.539,850.523,841.065,0.000,0.000,0
1510776534.009,830.509,817.350,851.552,846.822,0.000,0.000,0
1510776534.011,824.272,818.926,850.729,838.871,0.000,0.000,0
1510776534.013,821.873,822.490,854.225,826.191,0.000,0.000,0
1510776534.015,822.010,819.954,853.676,810.975,0.000,0.000,0
1510776534.017,824.683,820.228,855.047,802.065,0.000,0.000,0
1510776534.019,822.559,820.434,855.732,804.190,0.000,0.000,0
1510776534.021,817.418,821.736,857.720,806.383,0.000,0.000,0
1510776534.023,815.842,821.462,855.321,810.496,0.000,0.000,0
1510776534.025,820.503,819.543,853.334,827.288,0.000,0.000,0
1510776534.027,828.659,817.624,854.362,847.028,0.000,0.000,0
1510776534.029,832.771,816.459,856.761,848.947,0.000,0.000,0
1510776534.031,828.179,815.910,855.664,838.597,0.000,0.000,0
1510776534.033,821.873,818.652,853.059,819.200,0.000,0.000,0
1510776534.035,816.390,820.503,851.894,804.121,0.000,0.000,0
1510776534.037,817.144,818.857,850.660,796.513,0.000,0.000,0
1510776534.039,817.144,817.075,852.237,797.541,0.000,0.000,0
1510776534.041,811.387,817.761,854.362,792.812,0.000,0.000,0
1510776534.043,814.814,816.459,853.608,795.965,0.000,0.000,0
1510776534.045,820.777,813.785,851.826,809.536,0.000,0.000,0
1510776534.047,830.852,813.854,853.128,834.828,0.000,0.000,0
1510776534.049,835.581,811.661,853.059,848.536,0.000,0.000,0
1510776534.051,830.441,810.770,852.854,843.258,0.000,0.000,0
1510776534.053,819.817,816.527,855.527,832.017,0.000,0.000,0
1510776534.055,809.673,816.938,854.293,810.838,0.000,0.000,0
1510776534.057,808.988,819.406,853.059,800.489,0.000,0.000,0
1510776534.059,811.112,818.583,850.318,801.996,0.000,0.000,0
1510776534.061,818.378,822.696,854.225,809.193,0.000,0.000,0
1510776534.063,826.123,824.204,856.624,825.232,0.000,0.000,0
1510776534.065,828.864,822.559,855.321,836.198,0.000,0.000,0
1510776534.067,831.880,819.886,853.950,843.464,0.000,0.000,0
1510776534.069,833.320,818.926,852.785,848.536,0.000,0.000,0
1510776534.071,822.764,819.543,850.592,840.859,0.000,0.000,0
1510776534.073,813.100,819.680,854.225,822.970,0.000,0.000,0
1510776534.075,809.742,814.677,855.527,811.181,0.000,0.000,0
1510776534.077,817.966,815.225,857.309,807.206,0.000,0.000,0
1510776534.079,830.235,818.583,855.870,814.265,0.000,0.000,0
1510776534.081,833.662,818.104,854.567,826.466,0.000,0.000,0
1510776534.083,832.223,815.568,849.358,835.856,0.000,0.000,0
1510776534.085,831.058,817.624,848.399,838.392,0.000,0.000,0
1510776534.087,826.877,817.624,849.495,840.791,0.000,0.000,0
1510776534.089,821.736,820.228,850.935,830.304,0.000,0.000,0
1510776534.091,815.499,820.777,850.729,814.745,0.000,0.000,0
1510776534.093,811.592,818.446,848.536,788.151,0.000,0.000,0
1510776534.095,818.515,820.777,851.757,781.366,0.000,0.000,0
1510776534.097,824.409,820.571,851.483,786.575,0.000,0.000,0
1510776534.099,823.998,820.297,854.704,803.299,0.000,0.000,0
1510776534.101,827.836,822.901,854.430,813.374,0.000,0.000,0
1510776534.103,832.497,821.325,856.692,827.631,0.000,0.000,0
1510776534.105,836.130,820.297,856.898,844.492,0.000,0.000,0
1510776534.107,846.068,820.297,857.926,860.051,0.000,0.000,0
1510776534.109,847.508,820.503,857.789,849.701,0.000,0.000,0
1510776534.111,840.722,819.406,856.692,839.077,0.000,0.000,0
1510776534.113,828.659,815.293,856.007,825.095,0.000,0.000,0
1510776534.115,828.864,816.938,857.240,818.309,0.000,0.000,0
1510776534.117,825.026,821.531,855.184,811.592,0.000,0.000,0
1510776534.119,825.232,822.833,855.938,817.898,0.000,0.000,0
1510776534.121,830.167,819.680,853.813,818.789,0.000,0.000,0
1510776534.123,837.089,822.216,854.156,827.562,0.000,0.000,0
1510776534.125,839.077,820.914,851.483,840.585,0.000,0.000,0
1510776534.127,842.710,823.861,850.935,857.583,0.000,0.000,0
1510776534.129,843.669,825.369,849.290,862.449,0.000,0.000,0
1510776534.131,837.980,822.696,847.233,848.262,0.000,0.000,0
1510776534.133,825.163,820.091,847.370,832.360,0.000,0.000,0
1510776534.135,820.571,820.777,850.318,818.309,0.000,0.000,0
1510776534.137,820.297,820.708,850.729,813.923,0.000,0.000,0
1510776534.139,821.051,821.325,849.975,819.200,0.000,0.000,0
1510776534.141,821.462,821.805,848.262,826.877,0.000,0.000,0
1510776534.143,821.736,818.583,847.508,825.712,0.000,0.000,0
1510776534.145,829.207,815.636,851.072,833.525,0.000,0.000,0
1510776534.147,831.606,814.471,850.798,829.207,0.000,0.000,0
1510776534.149,834.142,812.552,849.016,835.239,0.000,0.000,0
1510776534.151,832.771,815.293,849.153,835.787,0.000,0.000,0
1510776534.153,830.509,820.297,853.745,827.494,0.000,0.000,0
1510776534.155,822.559,823.313,851.894,803.573,0.000,0.000,0
1510776534.157,817.829,820.777,848.878,796.719,0.000,0.000,0
1510776534.159,826.397,819.886,849.564,803.436,0.000,0.000,0
1510776534.161,830.167,820.160,850.112,814.197,0.000,0.000,0
1510776534.163,823.381,822.833,851.963,828.179,0.000,0.000,0
1510776534.165,825.643,818.995,851.277,834.211,0.000,0.000,0
1510776534.167,832.429,817.761,851.620,848.330,0.000,0.000,0
1510776534.169,832.840,819.063,851.209,854.088,0.000,0.000,0
1510776534.171,832.497,823.792,849.975,846.754,0.000,0.000,0
1510776534.173,832.977,826.466,849.358,832.977,0.000,0.000,0
1510776534.175,830.235,826.877,849.221,808.988,0.000,0.000,0
1510776534.177,824.204,825.163,848.124,794.046,0.000,0.000,0
1510776534.179,815.910,824.478,849.975,789.111,0.000,0.000,0
1510776534.181,810.564,819.132,849.221,792.675,0.000,0.000,0
1510776534.183,818.378,817.624,848.947,809.810,0.000,0.000,0
1510776534.185,824.546,819.269,852.717,829.344,0.000,0.000,0
1510776534.187,824.615,815.088,852.031,834.690,0.000,0.000,0
1510776534.189,823.861,812.826,849.701,841.339,0.000,0.000,0
1510776534.191,819.269,817.213,851.483,843.190,0.000,0.000,0
1510776534.193,813.854,817.555,850.729,832.292,0.000,0.000,0
1510776534.195,814.539,820.503,853.539,821.325,0.000,0.000,0
1510776534.197,815.636,822.353,853.539,812.689,0.000,0.000,0
1510776534.199,819.611,824.615,852.717,812.209,0.000,0.000,0
1510776534.201,821.805,825.437,852.237,818.789,0.000,0.000,0
1510776534.203,822.764,822.422,851.963,829.824,0.000,0.000,0
1510776534.205,826.945,819.749,851.620,842.093,0.000,0.000,0
1510776534.207,835.513,822.627,851.689,849.975,0.000,0.000,0
1510776534.209,836.815,825.026,852.374,839.625,0.000,0.000,0
1510776534.211,823.930,818.857,848.536,817.144,0.000,0.000,0
1510776534.213,819.886,817.898,847.645,803.025,0.000,0.000,0
1510776534.215,817.966,820.434,848.536,799.803,0.000,0.000,0
1510776534.217,815.979,825.712,849.564,796.239,0.000,0.000,0
1510776534.219,820.023,826.671,850.729,791.167,0.000,0.000,0
1510776534.221,822.353,825.163,852.785,800.489,0.000,0.000,0
1510776534.223,828.385,825.712,854.567,813.306,0.000,0.000,0
1510776534.225,833.045,824.889,855.184,829.618,0.000,0.000,0
1510776534.227,831.400,820.365,855.664,842.710,0.000,0.000,0
1510776534.229,832.840,813.991,855.664,852.374,0.000,0.000,0
1510776534.231,827.151,812.757,855.253,848.741,0.000,0.000,0
1510776534.233,822.833,816.253,854.567,835.993,0.000,0.000,0
1510776534.235,817.692,817.761,854.156,820.160,0.000,0.000,0
1510776534.237,815.088,814.814,854.225,810.838,0.000,0.000,0
1510776534.239,820.708,814.334,853.745,810.701,0.000,0.000,0
1510776534.241,821.873,817.692,852.511,818.857,0.000,0.000,0
1510776534.243,821.942,821.942,853.950,822.353,0.000,0.000,0
1510776534.245,816.116,820.982,849.084,807.411,0.000,0.000,0
1510776534.247,822.353,819.269,848.124,817.418,0.000,0.000,0
1510776534.249,825.437,820.708,847.782,832.086,0.000,0.000,0
1510776534.251,823.930,820.640,851.003,836.678,0.000,0.000,0
1510776534.253,820.914,814.128,850.386,819.063,0.000,0.000,0
1510776534.254,823.107,815.225,850.318,801.654,0.000,0.000,0
1510776534.256,821.736,821.531,851.277,795.005,0.000,0.000,0
1510776534.258,817.213,822.216,847.508,794.594,0.000,0.000,0
1510776534.260,821.119,823.381,849.701,808.097,0.000,0.000,0
1510776534.262,822.901,822.559,850.455,822.970,0.000,0.000,0
1510776534.264,824.067,820.023,851.757,831.126,0.000,0.000,0
1510776534.266,825.506,818.857,853.059,842.778,0.000,0.000,0
1510776534.268,824.135,815.636,853.745,847.987,0.000,0.000,0
1510776534.270,822.627,811.661,853.471,838.940,0.000,0.000,0
1510776534.272,823.313,815.362,851.963,822.216,0.000,0.000,0
1510776534.274,815.156,820.160,851.414,797.884,0.000,0.000,0
1510776534.276,805.903,817.624,850.798,779.995,0.000,0.000,0
1510776534.278,810.358,815.568,848.536,780.817,0.000,0.000,0
1510776534.280,818.378,818.515,851.757,798.432,0.000,0.000,0
1510776534.282,828.590,823.381,853.676,812.346,0.000,0.000,0
1510776534.284,837.295,826.054,853.745,830.852,0.000,0.000,0
1510776534.286,839.488,826.945,854.567,843.532,0.000,0.000,0
1510776534.288,830.509,821.393,854.293,841.407,0.000,0.000,0
1510776534.290,824.135,812.346,850.592,832.223,0.000,0.000,0
1510776534.292,823.518,813.374,851.552,825.575,0.000,0.000,0
1510776534.294,822.970,819.063,852.580,812.346,0.000,0.000,0
1510776534.296,818.857,824.409,851.963,799.255,0.000,0.000,0
1510776534.298,817.144,824.135,850.592,796.924,0.000,0.000,0
1510776534.300,815.842,821.531,851.003,804.464,0.000,0.000,0
1510776534.302,819.543,819.269,849.975,820.023,0.000,0.000,0
1510776534.304,827.425,818.857,849.564,833.114,0.000,0.000,0
1510776534.306,843.875,823.176,850.044,842.436,0.000,0.000,0
1510776534.308,846.137,824.546,847.508,836.335,0.000,0.000,0
1510776534.310,833.388,823.724,845.520,831.332,0.000,0.000,0
1510776534.312,827.425,821.462,849.016,820.297,0.000,0.000,0
1510776534.314,817.692,816.459,852.374,804.190,0.000,0.000,0
1510776534.316,808.988,815.225,853.196,790.961,0.000,0.000,0
1510776534.318,810.770,817.350,854.362,801.242,0.000,0.000,0
1510776534.320,819.749,819.543,860.805,811.318,0.000,0.000,0
1510776534.322,825.300,820.434,861.079,808.713,0.000,0.000,0
1510776534.324,827.219,813.785,854.225,814.608,0.000,0.000,0
1510776534.326,831.469,807.685,850.181,837.501,0.000,0.000,0
1510776534.328,834.828,809.879,851.826,846.068,0.000,0.000,0
1510776534.330,828.111,809.330,851.483,841.133,0.000,0.000,0
1510776534.332,822.422,812.209,848.947,824.546,0.000,0.000,0
1510776534.334,824.341,818.720,849.290,812.689,0.000,0.000,0
1510776534.336,828.111,822.970,849.016,801.517,0.000,0.000,0
1510776534.338,834.690,826.603,849.906,793.292,0.000,0.000,0
1510776534.340,832.017,824.683,849.495,801.791,0.000,0.000,0
1510776534.342,830.235,820.982,846.891,809.262,0.000,0.000,0
1510776534.344,832.634,821.119,848.673,823.518,0.000,0.000,0
1510776534.346,833.457,821.051,848.124,842.915,0.000,0.000,0
1510776534.348,830.509,819.543,847.302,855.938,0.000,0.000,0
1510776534.350,826.808,817.898,851.072,854.019,0.000,0.000,0
1510776534.352,827.905,820.160,853.059,837.912,0.000,0.000,0
1510776534.354,824.752,822.422,853.128,810.770,0.000,0.000,0
1510776534.356,826.603,823.381,850.455,790.687,0.000,0.000,0
1510776534.358,827.699,824.889,850.798,787.466,0.000,0.000,0
1510776534.360,833.114,823.244,853.608,799.460,0.000,0.000,0
1510776534.362,834.553,822.833,854.979,820.914,0.000,0.000,0
1510776534.364,833.388,817.350,855.321,833.731,0.000,0.000,0
1510776534.366,837.432,815.705,853.402,842.161,0.000,0.000,0
1510776534.368,841.407,816.184,852.717,853.813,0.000,0.000,0
1510776534.370,839.900,813.580,853.539,852.991,0.000,0.000,0
1510776534.372,831.400,814.608,852.443,835.102,0.000,0.000,0
1510776534.374,825.917,819.749,853.950,821.393,0.000,0.000,0
1510776534.376,826.466,823.518,856.212,814.814,0.000,0.000,0
1510776534.378,831.880,826.191,855.116,814.814,0.000,0.000,0
1510776534.380,835.376,828.522,856.966,826.671,0.000,0.000,0
1510776534.382,837.501,829.070,855.732,834.074,0.000,0.000,0
1510776534.384,832.017,827.082,854.088,841.270,0.000,0.000,0
1510776534.386,838.803,828.179,853.608,854.499,0.000,0.000,0
1510776534.388,839.968,827.631,851.140,858.063,0.000,0.000,0
1510776534.390,836.061,827.151,854.019,849.427,0.000,0.000,0
1510776534.392,830.304,825.917,856.212,831.675,0.000,0.000,0
1510776534.394,820.434,822.970,853.882,808.988,0.000,0.000,0
1510776534.396,825.369,822.901,853.334,801.174,0.000,0.000,0
1510776534.398,829.002,824.409,851.894,809.879,0.000,0.000,0
1510776534.400,831.469,824.683,850.592,817.898,0.000,0.000,0
1510776534.402,836.404,826.397,850.866,827.973,0.000,0.000,0
1510776534.404,845.383,830.441,854.156,838.597,0.000,0.000,0
1510776534.406,843.669,830.509,852.511,838.049,0.000,0.000,0
1510776534.408,841.133,828.727,853.128,846.754,0.000,0.000,0
1510776534.410,837.980,823.792,853.265,847.233,0.000,0.000,0
1510776534.412,833.799,820.640,852.374,836.610,0.000,0.000,0
1510776534.414,832.429,818.926,852.305,824.204,0.000,0.000,0
1510776534.416,832.154,820.297,852.785,813.785,0.000,0.000,0
1510776534.418,828.933,816.938,852.237,812.552,0.000,0.000,0
1510776534.420,831.538,816.938,852.648,818.309,0.000,0.000,0
1510776534.422,832.223,822.079,854.430,823.998,0.000,0.000,0
1510776534.424,830.852,823.724,852.511,820.228,0.000,0.000,0
1510776534.426,828.933,825.849,850.112,832.908,0.000,0.000,0
1510776534.428,829.207,829.550,849.290,848.604,0.000,0.000,0
1510776534.430,831.675,827.631,849.838,849.906,0.000,0.000,0
1510776534.432,832.223,827.151,848.399,841.133,0.000,0.000,0
1510776534.434,829.550,828.796,848.741,826.671,0.000,0.000,0
1510776534.436,827.151,828.659,850.592,809.125,0.000,0.000,0
1510776534.438,825.643,827.219,847.508,793.977,0.000,0.000,0
1510776534.440,829.070,827.905,846.685,799.049,0.000,0.000,0
1510776534.442,830.372,827.562,847.028,814.539,0.000,0.000,0
1510776534.444,836.952,828.727,849.016,832.977,0.000,0.000,0
1510776534.446,844.149,828.248,849.358,850.660,0.000,0.000,0
1510776534.448,849.153,825.780,850.112,865.534,0.000,0.000,0
1510776534.450,844.629,822.833,849.564,866.973,0.000,0.000,0
1510776534.452,841.476,823.587,846.479,847.439,0.000,0.000,0
1510776534.454,837.295,824.204,848.947,824.409,0.000,0.000,0
1510776534.456,834.965,825.917,851.963,814.402,0.000,0.000,0
1510776534.458,832.771,823.176,853.813,807.137,0.000,0.000,0
1510776534.460,824.821,819.063,851.894,803.367,0.000,0.000,0
1510776534.462,825.506,814.814,846.411,811.318,0.000,0.000,0
1510776534.464,836.130,818.172,848.673,830.921,0.000,0.000,0
1510776534.466,840.791,824.889,853.128,848.673,0.000,0.000,0
1510776534.468,842.710,826.397,853.813,855.527,0.000,0.000,0
1510776534.470,845.246,830.578,853.608,847.165,0.000,0.000,0
1510776534.472,833.320,830.030,853.334,833.799,0.000,0.000,0
1510776534.474,825.095,826.945,852.305,822.764,0.000,0.000,0
1510776534.476,824.135,826.740,851.620,813.374,0.000,0.000,0
1510776534.478,829.002,830.715,852.991,818.583,0.000,0.000,0
1510776534.480,833.936,827.905,851.689,820.914,0.000,0.000,0
1510776534.482,839.077,824.067,854.019,831.743,0.000,0.000,0
1510776534.484,842.984,824.204,854.499,846.137,0.000,0.000,0
1510776534.486,843.464,824.889,853.196,849.838,0.000,0.000,0
1510776534.488,843.052,827.699,852.100,849.632,0.000,0.000,0
1510776534.490,842.367,828.864,852.717,838.117,0.000,0.000,0
1510776534.492,843.464,825.712,851.277,817.007,0.000,0.000,0
1510776534.494,832.634,822.216,850.592,810.016,0.000,0.000,0
1510776534.496,827.562,821.256,849.084,806.383,0.000,0.000,0
1510776534.498,828.042,817.761,850.112,812.346,0.000,0.000,0
1510776534.500,833.868,817.144,851.689,828.042,0.000,0.000,0
1510776534.502,837.912,815.225,857.789,845.314,0.000,0.000,0
1510776534.504,834.622,811.935,858.954,860.873,0.000,0.000,0
1510776534.506,835.102,818.652,853.882,861.421,0.000,0.000,0
1510776534.508,843.190,826.808,852.031,861.353,0.000,0.000,0
1510776534.510,842.504,831.126,850.523,849.084,0.000,0.000,0
1510776534.512,834.485,831.469,850.798,831.743,0.000,0.000,0
1510776534.514,829.207,826.397,849.495,806.931,0.000,0.000,0
1510776534.516,829.550,824.752,850.523,804.121,0.000,0.000,0
1510776534.518,830.509,824.683,853.196,817.281,0.000,0.000,0
1510776534.520,827.631,823.655,853.402,818.652,0.000,0.000,0
1510776534.522,833.936,818.104,854.841,813.648,0.000,0.000,0
1510776534.524,835.924,819.474,856.692,829.070,0.000,0.000,0
1510776534.526,837.912,819.337,855.664,848.193,0.000,0.000,0
1510776534.528,836.610,824.958,856.349,860.530,0.000,0.000,0
1510776534.530,830.921,827.425,854.910,855.458,0.000,0.000,0
1510776534.532,834.965,829.755,853.745,838.186,0.000,0.000,0
1510776534.534,835.993,827.425,852.237,821.393,0.000,0.000,0
1510776534.536,831.058,828.179,853.676,806.863,0.000,0.000,0
1510776534.538,821.256,820.777,852.031,801.928,0.000,0.000,0
1510776534.540,824.409,819.611,851.140,805.903,0.000,0.000,0
1510776534.542,830.030,816.459,850.592,819.269,0.000,0.000,0
1510776534.544,834.142,816.801,852.648,841.270,0.000,0.000,0
1510776534.546,836.884,818.995,850.935,852.443,0.000,0.000,0
1510776534.548,836.473,823.792,852.237,862.244,0.000,0.000,0
1510776534.550,836.815,826.123,852.168,861.353,0.000,0.000,0
1510776534.552,831.263,825.232,854.019,843.943,0.000,0.000,0
1510776534.554,827.219,825.437,854.225,824.341,0.000,0.000,0
1510776534.556,831.058,825.369,854.156,816.253,0.000,0.000,0
1510776534.558,832.977,825.849,856.486,806.452,0.000,0.000,0
1510776534.560,827.288,823.724,859.091,803.299,0.000,0.000,0
1510776534.562,827.973,818.446,857.240,811.455,0.000,0.000,0
1510776534.564,832.497,820.365,854.773,828.590,0.000,0.000,0
1510776534.566,839.694,825.232,852.305,850.112,0.000,0.000,0
1510776534.568,839.283,827.288,852.031,850.523,0.000,0.000,0
1510776534.570,830.852,827.014,852.031,844.560,0.000,0.000,0
1510776534.572,830.030,826.808,850.660,831.332,0.000,0.000,0
1510776534.574,831.880,827.219,850.660,821.599,0.000,0.000,0
1510776534.576,834.828,829.139,851.894,808.645,0.000,0.000,0
1510776534.578,837.843,829.070,853.676,808.645,0.000,0.000,0
1510776534.580,842.367,826.260,852.511,817.007,0.000,0.000,0
1510776534.582,837.432,823.724,853.196,833.251,0.000,0.000,0
1510776534.584,838.323,823.930,857.240,847.439,0.000,0.000,0
1510776534.586,841.613,822.010,858.543,861.490,0.000,0.000,0
1510776534.588,849.632,823.930,855.184,864.232,0.000,0.000,0
1510776534.590,851.346,829.276,854.636,848.604,0.000,0.000,0
1510776534.592,849.564,829.413,853.334,820.914,0.000,0.000,0
1510776534.594,838.186,825.986,854.773,815.636,0.000,0.000,0
1510776534.596,831.400,822.147,858.131,807.685,0.000,0.000,0
1510776534.598,836.198,822.559,858.063,811.729,0.000,0.000,0
1510776534.600,835.993,825.712,857.926,822.559,0.000,0.000,0
1510776534.602,842.778,831.332,859.845,839.831,0.000,0.000,0
1510776534.604,847.233,830.441,856.966,839.420,0.000,0.000,0
1510776534.606,850.181,828.522,856.486,851.483,0.000,0.000,0
1510776534.608,848.604,829.002,856.829,862.724,0.000,0.000,0
1510776534.610,847.165,831.949,860.667,862.998,0.000,0.000,0
1510776534.612,841.750,830.030,862.998,853.265,0.000,0.000,0
1510776534.614,835.993,825.369,861.284,838.940,0.000,0.000,0
1510776534.616,826.671,825.095,858.131,824.341,0.000,0.000,0
1510776534.618,829.070,825.780,856.624,820.160,0.000,0.000,0
1510776534.620,836.952,827.151,857.446,827.836,0.000,0.000,0
1510776534.622,840.791,827.631,856.624,836.678,0.000,0.000,0
1510776534.624,835.444,828.042,854.362,835.376,0.000,0.000,0
1510776534.626,832.634,822.147,853.402,849.632,0.000,0.000,0
1510776534.628,836.610,821.736,859.228,853.745,0.000,0.000,0
1510776534.630,837.226,825.712,861.627,841.476,0.000,0.000,0
1510776534.632,831.126,827.973,858.543,826.808,0.000,0.000,0
1510776534.634,828.796,830.509,858.748,817.418,0.000,0.000,0
1510776534.636,831.263,831.743,858.543,811.798,0.000,0.000,0
1510776534.638,841.545,835.719,861.147,815.568,0.000,0.000,0
1510776534.640,842.573,834.622,860.393,807.822,0.000,0.000,0
1510776534.642,844.149,834.279,860.667,822.010,0.000,0.000,0
1510776534.644,853.334,829.824,863.066,842.161,0.000,0.000,0
1510776534.646,861.558,823.518,865.054,858.543,0.000,0.000,0
1510776534.648,871.908,823.244,863.203,862.518,0.000,0.000,0
1510776534.650,878.077,827.425,860.805,857.720,0.000,0.000,0
1510776534.652,851.072,829.824,859.365,848.056,0.000,0.000,0
1510776534.654,839.009,830.921,859.297,828.042,0.000,0.000,0
1510776534.656,844.972,829.070,859.297,807.822,0.000,0.000,0
1510776534.658,838.049,822.353,855.870,803.025,0.000,0.000,0
1510776534.660,833.183,827.357,860.873,820.708,0.000,0.000,0
1510776534.662,847.987,828.590,862.587,833.388,0.000,0.000,0
1510776534.664,839.077,826.534,861.284,842.915,0.000,0.000,0
1510776534.666,835.376,827.494,860.188,855.938,0.000,0.000,0
1510776534.668,840.311,823.998,860.256,863.135,0.000,0.000,0
1510776534.670,839.968,817.075,861.558,860.051,0.000,0.000,0
1510776534.672,843.121,817.692,865.465,842.230,0.000,0.000,0
1510776534.674,840.585,823.176,870.332,831.195,0.000,0.000,0
1510776534.676,830.989,821.668,866.151,817.692,0.000,0.000,0
1510776534.678,831.332,826.123,863.820,818.857,0.000,0.000,0
1510776534.680,839.283,832.086,861.216,824.615,0.000,0.000,0
1510776534.682,847.508,835.444,859.091,828.796,0.000,0.000,0
1510776534.684,847.233,834.074,858.885,836.335,0.000,0.000,0
1510776534.686,843.258,836.473,859.982,842.641,0.000,0.000,0
1510776534.688,841.202,829.481,857.789,839.488,0.000,0.000,0
1510776534.690,836.404,825.300,856.898,837.432,0.000,0.000,0
1510776534.692,834.142,824.683,855.184,826.877,0.000,0.000,0
1510776534.694,846.137,826.740,859.022,818.035,0.000,0.000,0
1510776534.696,837.912,826.740,860.325,811.661,0.000,0.000,0
1510776534.698,842.230,825.232,864.574,820.571,0.000,0.000,0
1510776534.700,841.545,823.930,864.026,828.179,0.000,0.000,0
1510776534.702,848.947,824.204,861.627,839.214,0.000,0.000,0
1510776534.704,858.131,826.740,858.406,840.105,0.000,0.000,0
1510776534.706,861.490,825.095,857.583,838.117,0.000,0.000,0
1510776534.708,854.704,829.344,858.268,843.121,0.000,0.000,0
1510776534.710,833.045,829.070,855.664,838.597,0.000,0.000,0
1510776534.712,803.504,828.248,854.910,820.023,0.000,0.000,0
1510776534.714,796.719,822.764,858.337,815.362,0.000,0.000,0
1510776534.716,784.244,819.954,856.349,806.657,0.000,0.000,0
1510776534.718,786.438,823.244,856.829,807.891,0.000,0.000,0
1510776534.720,805.835,820.297,856.349,817.350,0.000,0.000,0
1510776534.722,815.568,822.901,854.567,835.719,0.000,0.000,0
1510776534.724,817.624,828.727,857.035,844.286,0.000,0.000,0
1510776534.726,815.430,826.123,855.458,840.859,0.000,0.000,0
1510776534.728,820.023,822.422,856.555,838.529,0.000,0.000,0
1510776534.730,820.708,818.789,850.935,834.416,0.000,0.000,0
1510776534.732,816.938,820.091,849.906,828.042,0.000,0.000,0
1510776534.734,805.492,825.849,853.882,821.873,0.000,0.000,0
1510776534.736,774.375,826.260,857.103,815.568,0.000,0.000,0
1510776534.738,780.063,822.285,859.913,808.439,0.000,0.000,0
1510776534.740,796.445,817.829,859.639,810.016,0.000,0.000,0
1510776534.742,796.376,815.979,856.212,814.128,0.000,0.000,0
1510776534.744,788.768,819.132,858.131,832.154,0.000,0.000,0
1510776534.746,785.341,821.462,855.527,845.246,0.000,0.000,0
1510776534.748,798.501,822.353,853.265,853.402,0.000,0.000,0
1510776534.750,797.267,821.531,854.841,846.205,0.000,0.000,0
1510776534.752,796.924,825.780,859.845,841.202,0.000,0.000,0
1510776534.754,798.295,821.942,857.240,824.478,0.000,0.000,0
1510776534.756,790.345,819.474,856.624,808.645,0.000,0.000,0
1510776534.758,779.721,816.938,853.950,787.877,0.000,0.000,0
1510776534.760,787.260,816.390,855.458,794.663,0.000,0.000,0
1510776534.762,790.413,821.531,858.200,813.923,0.000,0.000,0
1510776534.764,783.285,821.051,856.966,827.014,0.000,0.000,0
1510776534.766,790.002,821.668,854.019,840.311,0.000,0.000,0
1510776534.768,807.548,825.917,854.088,847.508,0.000,0.000,0
1510776534.770,813.923,825.986,850.386,843.395,0.000,0.000,0
1510776534.772,809.947,819.817,850.592,833.731,0.000,0.000,0
1510776534.774,778.487,809.947,852.580,820.023,0.000,0.000,0
1510776534.776,764.299,805.972,859.297,811.181,0.000,0.000,0
1510776534.778,774.786,812.620,865.602,821.393,0.000,0.000,0
1510776534.780,775.403,815.362,865.602,827.357,0.000,0.000,0
1510776534.782,783.079,822.764,863.957,832.223,0.000,0.000,0
1510776534.784,791.578,829.344,864.163,840.242,0.000,0.000,0
1510776534.786,799.118,832.497,866.356,845.109,0.000,0.000,0
1510776534.788,804.258,831.812,869.509,855.870,0.000,0.000,0
1510776534.790,807.343,829.961,870.400,857.446,0.000,0.000,0
1510776534.792,809.947,825.506,867.384,840.928,0.000,0.000,0
1510776534.794,803.641,818.241,867.110,808.165,0.000,0.000,0
1510776534.796,794.251,817.213,865.328,795.417,0.000,0.000,0
1510776534.798,793.566,817.829,864.574,802.750,0.000,0.000,0
1510776534.800,807.343,819.611,865.191,816.253,0.000,0.000,0
1510776534.802,814.745,819.817,859.022,831.263,0.000,0.000,0
1510776534.804,818.995,821.188,853.676,834.279,0.000,0.000,0
1510776534.806,819.543,822.970,855.527,840.928,0.000,0.000,0
1510776534.808,834.211,827.631,862.792,857.857,0.000,0.000,0
1510776534.810,836.473,829.824,869.167,863.203,0.000,0.000,0
1510776534.812,823.313,824.478,865.945,848.878,0.000,0.000,0
1510776534.814,814.060,822.627,864.643,838.940,0.000,0.000,0
1510776534.816,813.032,821.668,861.284,821.325,0.000,0.000,0
1510776534.818,820.160,820.160,854.499,815.019,0.000,0.000,0
1510776534.820,826.603,821.256,853.813,816.184,0.000,0.000,0
1510776534.822,828.042,825.849,858.337,822.901,0.000,0.000,0
1510776534.824,830.852,822.627,858.474,820.982,0.000,0.000,0
1510776534.826,840.859,825.369,860.530,836.541,0.000,0.000,0
1510776534.828,841.270,828.864,858.337,841.270,0.000,0.000,0
1510776534.830,839.694,831.743,860.942,841.133,0.000,0.000,0
1510776534.832,833.114,829.413,863.203,835.856,0.000,0.000,0
1510776534.834,832.908,828.042,862.724,825.643,0.000,0.000,0
1510776534.836,834.485,830.441,865.602,817.555,0.000,0.000,0
1510776534.838,837.226,828.864,862.107,803.162,0.000,0.000,0
1510776534.840,838.734,823.792,859.776,806.109,0.000,0.000,0
1510776534.842,842.161,813.374,853.265,819.132,0.000,0.000,0
1510776534.844,852.443,813.717,855.047,838.529,0.000,0.000,0
1510776534.846,863.066,816.527,858.063,856.966,0.000,0.000,0
1510776534.848,866.699,826.466,862.449,872.868,0.000,0.000,0
1510776534.850,863.546,828.933,863.752,866.905,0.000,0.000,0
1510776534.852,860.188,824.272,862.655,850.523,0.000,0.000,0
1510776534.854,858.817,828.179,861.010,828.179,0.000,0.000,0
1510776534.856,856.144,829.002,857.103,788.974,0.000,0.000,0
1510776534.858,863.615,826.877,857.377,788.425,0.000,0.000,0
1510776534.860,862.107,822.627,859.365,798.295,0.000,0.000,0
1510776534.862,864.163,826.877,862.038,814.539,0.000,0.000,0
1510776534.864,872.525,832.977,862.518,839.214,0.000,0.000,0
1510776534.866,878.762,830.235,860.873,864.574,0.000,0.000,0
1510776534.868,877.940,824.889,861.079,879.311,0.000,0.000,0
1510776534.870,878.008,827.288,861.901,866.973,0.000,0.000,0
1510776534.872,876.295,830.235,866.151,840.037,0.000,0.000,0
1510776534.874,876.569,829.550,867.316,822.353,0.000,0.000,0
1510776534.876,875.267,828.316,867.864,816.116,0.000,0.000,0
1510776534.878,878.282,833.183,870.469,817.966,0.000,0.000,0
1510776534.880,880.681,830.715,868.207,829.618,0.000,0.000,0
1510776534.882,879.311,819.200,857.309,836.952,0.000,0.000,0
1510776534.884,883.149,806.589,852.443,836.061,0.000,0.000,0
1510776534.886,884.108,809.193,850.935,840.859,0.000,0.000,0
1510776534.888,877.391,814.882,855.321,835.581,0.000,0.000,0
1510776534.890,867.727,816.870,854.567,824.821,0.000,0.000,0
1510776534.892,859.776,811.729,854.156,819.132,0.000,0.000,0
1510776534.894,862.861,808.165,856.898,816.390,0.000,0.000,0
1510776534.896,868.755,803.025,854.430,810.907,0.000,0.000,0
1510776534.898,868.344,805.081,851.140,820.297,0.000,0.000,0
1510776534.900,874.718,815.773,853.334,826.328,0.000,0.000,0
1510776534.902,878.694,825.163,854.910,838.255,0.000,0.000,0
1510776534.904,878.488,831.469,852.717,841.819,0.000,0.000,0
1510776534.906,886.644,835.719,854.979,849.290,0.000,0.000,0
1510776534.908,883.629,839.214,859.228,860.256,0.000,0.000,0
1510776534.910,877.323,835.993,860.667,853.745,0.000,0.000,0
1510776534.912,865.945,829.207,861.079,838.255,0.000,0.000,0
1510776534.914,866.905,825.300,858.885,822.901,0.000,0.000,0
1510776534.916,862.175,821.805,855.184,812.072,0.000,0.000,0
1510776534.918,859.091,821.873,853.608,811.455,0.000,0.000,0
1510776534.920,858.406,825.506,856.349,800.626,0.000,0.000,0
1510776534.922,862.998,826.945,858.268,799.872,0.000,0.000,0
1510776534.924,865.945,822.764,854.910,811.181,0.000,0.000,0
1510776534.926,874.307,820.228,854.293,833.045,0.000,0.000,0
1510776534.928,872.662,819.749,856.349,844.903,0.000,0.000,0
1510776534.930,862.175,818.104,857.309,837.432,0.000,0.000,0
1510776534.932,857.309,821.873,855.938,829.824,0.000,0.000,0
1510776534.934,856.418,823.998,851.894,809.810,0.000,0.000,0
1510776534.936,861.764,824.272,852.991,802.956,0.000,0.000,0
1510776534.938,864.506,823.861,858.611,794.800,0.000,0.000,0
1510776534.940,860.736,822.764,860.942,800.763,0.000,0.000,0
1510776534.942,857.309,822.901,859.228,804.944,0.000,0.000,0
1510776534.944,860.256,820.434,856.075,811.455,0.000,0.000,0
1510776534.946,869.715,818.035,855.801,839.557,0.000,0.000,0
1510776534.948,867.590,812.209,860.119,869.989,0.000,0.000,0
1510776534.950,855.595,812.415,864.163,878.625,0.000,0.000,0
1510776534.952,841.887,818.309,862.587,851.140,0.000,0.000,0
1510776534.954,847.439,821.531,858.543,825.712,0.000,0.000,0
1510776534.956,851.414,825.712,855.870,796.993,0.000,0.000,0
1510776534.958,837.775,825.986,855.732,784.656,0.000,0.000,0
1510776534.960,830.784,823.930,857.652,786.438,0.000,0.000,0
1510776534.962,833.799,820.571,858.748,795.759,0.000,0.000,0
1510776534.964,843.738,818.104,862.244,823.518,0.000,0.000,0
1510776534.966,849.906,816.390,863.546,853.745,0.000,0.000,0
1510776534.968,846.822,819.543,862.244,869.372,0.000,0.000,0
1510776534.970,854.430,824.546,860.530,878.282,0.000,0.000,0
1510776534.972,861.764,828.316,862.587,874.101,0.000,0.000,0
1510776534.974,854.019,826.877,859.776,848.399,0.000,0.000,0
1510776534.976,848.878,822.010,858.543,828.042,0.000,0.000,0
1510776534.978,847.782,822.079,858.680,833.457,0.000,0.000,0
1510776534.980,865.671,825.026,859.091,838.186,0.000,0.000,0
1510776534.982,870.126,827.288,858.474,846.548,0.000,0.000,0
1510776534.984,845.040,824.683,859.571,858.063,0.000,0.000,0
1510776534.986,842.024,818.857,858.611,844.697,0.000,0.000,0
1510776534.988,834.142,815.430,857.377,843.395,0.000,0.000,0
1510776534.990,837.843,817.692,855.527,839.557,0.000,0.000,0
1510776534.992,858.817,823.792,854.773,836.130,0.000,0.000,0
1510776534.994,866.014,826.534,855.870,839.694,0.000,0.000,0
1510776534.996,839.557,826.534,854.841,827.425,0.000,0.000,0
1510776534.998,826.123,823.313,851.757,801.791,0.000,0.000,0
1510776535.000,834.211,821.462,850.386,799.666,0.000,0.000,0
1510776535.002,836.678,821.393,853.676,820.571,0.000,0.000,0
1510776535.004,829.413,820.297,856.898,834.828,0.000,0.000,0
1510776535.006,839.146,819.337,860.736,850.523,0.000,0.000,0
1510776535.008,835.581,817.281,857.583,831.058,0.000,0.000,0
1510776535.010,834.759,821.051,856.212,835.787,0.000,0.000,0
1510776535.012,841.887,826.328,853.882,829.893,0.000,0.000,0
1510776535.014,829.550,825.780,854.979,819.954,0.000,0.000,0
1510776535.016,825.095,824.683,853.745,817.966,0.000,0.000,0
1510776535.018,834.759,827.151,855.801,823.792,0.000,0.000,0
1510776535.020,829.207,826.191,856.007,818.515,0.000,0.000,0
1510776535.022,832.360,821.805,858.817,819.749,0.000,0.000,0
1510776535.024,830.509,819.886,856.624,814.882,0.000,0.000,0
1510776535.026,831.126,823.450,856.966,831.949,0.000,0.000,0
1510776535.028,830.235,820.982,856.555,849.016,0.000,0.000,0
1510776535.030,844.697,822.970,855.732,851.689,0.000,0.000,0
1510776535.032,847.919,825.163,856.898,839.694,0.000,0.000,0
1510776535.034,841.065,828.864,856.281,815.088,0.000,0.000,0
1510776535.036,830.304,828.659,854.841,793.086,0.000,0.000,0
1510776535.038,831.675,827.768,855.527,798.638,0.000,0.000,0
1510776535.040,832.908,820.023,855.047,795.759,0.000,0.000,0
1510776535.042,842.847,820.914,856.966,801.791,0.000,0.000,0
1510776535.044,834.690,821.668,854.704,808.713,0.000,0.000,0
1510776535.046,834.485,821.668,852.511,820.640,0.000,0.000,0
1510776535.048,840.037,821.393,848.604,829.687,0.000,0.000,0
1510776535.050,848.536,823.792,850.386,837.501,0.000,0.000,0
1510776535.052,846.000,825.986,854.841,835.444,0.000,0.000,0
1510776535.054,834.211,827.699,855.732,815.842,0.000,0.000,0
1510776535.056,822.147,821.325,851.552,791.784,0.000,0.000,0
1510776535.058,826.808,815.705,845.794,788.905,0.000,0.000,0
1510776535.060,832.634,817.898,843.669,805.766,0.000,0.000,0
1510776535.062,837.501,822.147,847.096,829.413,0.000,0.000,0
1510776535.064,848.467,823.176,853.402,852.991,0.000,0.000,0
1510776535.066,850.798,824.889,854.567,855.321,0.000,0.000,0
1510776535.068,844.972,827.699,855.047,846.274,0.000,0.000,0
1510776535.070,840.585,831.195,856.624,846.205,0.000,0.000,0
1510776535.072,830.989,829.687,855.390,834.142,0.000,0.000,0
1510776535.074,819.611,828.179,855.253,820.503,0.000,0.000,0
1510776535.076,819.749,827.425,855.870,811.455,0.000,0.000,0
1510776535.078,822.422,823.107,855.732,815.430,0.000,0.000,0
1510776535.080,832.497,816.938,854.156,823.998,0.000,0.000,0
1510776535.082,847.302,822.559,853.196,832.429,0.000,0.000,0
1510776535.084,845.314,828.933,852.511,841.613,0.000,0.000,0
1510776535.086,851.277,833.457,855.938,850.249,0.000,0.000,0
1510776535.088,857.240,837.432,857.720,852.648,0.000,0.000,0
1510776535.090,849.016,843.121,860.462,858.268,0.000,0.000,0
1510776535.092,838.255,836.610,855.321,846.137,0.000,0.000,0
1510776535.094,828.864,828.590,853.882,828.933,0.000,0.000,0
1510776535.096,831.606,821.393,848.330,798.706,0.000,0.000,0
1510776535.098,834.416,818.583,847.782,806.177,0.000,0.000,0
1510776535.100,831.126,822.490,847.782,815.979,0.000,0.000,0
1510776535.102,832.634,824.067,854.499,830.509,0.000,0.000,0
1510776535.104,834.348,828.864,858.200,830.784,0.000,0.000,0
1510776535.106,820.845,825.917,854.841,815.842,0.000,0.000,0
1510776535.108,818.583,821.736,849.358,817.898,0.000,0.000,0
1510776535.110,833.114,825.575,849.495,843.875,0.000,0.000,0
1510776535.112,827.425,825.026,850.181,855.938,0.000,0.000,0
1510776535.114,816.733,819.611,851.346,829.550,0.000,0.000,0
1510776535.116,810.564,813.854,851.140,812.346,0.000,0.000,0
1510776535.118,819.611,818.172,854.430,816.733,0.000,0.000,0
1510776535.120,829.413,826.397,856.555,832.429,0.000,0.000,0
1510776535.122,824.409,828.248,853.676,835.033,0.000,0.000,0
1510776535.124,825.986,829.481,850.386,818.857,0.000,0.000,0
1510776535.126,831.606,830.167,847.439,826.123,0.000,0.000,0
1510776535.128,837.843,829.687,852.100,841.270,0.000,0.000,0
1510776535.130,837.706,828.933,854.773,845.657,0.000,0.000,0
1510776535.132,822.696,826.466,853.882,833.388,0.000,0.000,0
1510776535.134,818.857,822.422,855.458,828.796,0.000,0.000,0
1510776535.136,822.696,823.313,856.624,811.181,0.000,0.000,0
1510776535.138,829.139,826.808,854.704,787.123,0.000,0.000,0
1510776535.140,836.130,831.949,853.950,789.179,0.000,0.000,0
1510776535.142,841.202,828.933,849.975,801.105,0.000,0.000,0
1510776535.144,832.223,828.111,850.044,814.402,0.000,0.000,0
1510776535.146,826.671,826.123,853.745,823.587,0.000,0.000,0
1510776535.148,830.441,816.733,855.664,844.286,0.000,0.000,0
1510776535.150,839.214,815.019,853.196,858.337,0.000,0.000,0
1510776535.152,835.444,824.204,856.349,856.829,0.000,0.000,0
1510776535.154,839.968,833.799,861.421,851.346,0.000,0.000,0
1510776535.156,820.914,834.690,858.748,813.991,0.000,0.000,0
1510776535.158,809.193,829.687,857.309,800.352,0.000,0.000,0
1510776535.160,815.430,826.260,855.390,801.174,0.000,0.000,0
1510776535.162,816.116,824.341,853.471,802.134,0.000,0.000,0
1510776535.164,822.010,822.559,851.826,812.072,0.000,0.000,0
1510776535.166,832.908,824.409,848.467,828.179,0.000,0.000,0
1510776535.168,838.392,826.671,848.399,846.548,0.000,0.000,0
1510776535.170,832.703,825.849,850.044,833.594,0.000,0.000,0
1510776535.172,817.281,825.163,850.044,815.293,0.000,0.000,0
1510776535.174,815.156,820.640,850.318,816.733,0.000,0.000,0
1510776535.176,831.469,822.627,854.841,821.188,0.000,0.000,0
1510776535.178,833.731,825.849,857.789,824.958,0.000,0.000,0
1510776535.180,830.852,824.272,855.458,813.923,0.000,0.000,0
1510776535.182,827.768,822.627,852.100,825.643,0.000,0.000,0
1510776535.184,825.163,825.369,849.701,838.597,0.000,0.000,0
1510776535.186,822.490,825.232,848.536,839.077,0.000,0.000,0
1510776535.188,819.749,825.575,850.798,834.828,0.000,0.000,0
1510776535.190,823.930,822.285,852.922,844.149,0.000,0.000,0
1510776535.192,831.675,815.773,852.922,858.131,0.000,0.000,0
1510776535.194,837.706,816.938,858.611,867.521,0.000,0.000,0
1510776535.196,849.701,818.583,854.910,845.657,0.000,0.000,0
1510776535.198,849.564,819.749,851.552,842.436,0.000,0.000,0
1510776535.200,838.803,829.893,849.701,837.706,0.000,0.000,0
1510776535.202,848.878,845.520,861.901,843.738,0.000,0.000,0
1510776535.204,844.012,823.244,846.685,824.272,0.000,0.000,0
1510776535.206,836.335,808.713,833.731,823.107,0.000,0.000,0
1510776535.208,838.460,811.661,837.980,833.457,0.000,0.000,0
1510776535.210,825.026,827.288,853.608,842.710,0.000,0.000,0
1510776535.212,827.768,831.058,862.792,849.358,0.000,0.000,0
1510776535.214,834.622,822.627,854.979,829.276,0.000,0.000,0
1510776535.216,819.886,815.773,834.348,792.195,0.000,0.000,0
1510776535.218,831.675,833.594,846.342,799.186,0.000,0.000,0
1510776535.220,857.035,856.075,866.905,827.425,0.000,0.000,0
1510776535.222,828.864,832.154,847.508,807.137,0.000,0.000,0
1510776535.224,813.374,815.019,840.379,808.302,0.000,0.000,0
1510776535.226,812.072,817.761,851.757,827.562,0.000,0.000,0
1510776535.228,820.845,824.478,855.527,836.747,0.000,0.000,0
1510776535.230,829.481,826.603,856.624,846.000,0.000,0.000,0
1510776535.232,830.098,822.422,856.829,840.379,0.000,0.000,0
1510776535.234,819.337,823.861,854.636,821.188,0.000,0.000,0
1510776535.236,830.167,840.174,865.671,823.176,0.000,0.000,0
1510776535.238,834.553,837.706,860.736,817.350,0.000,0.000,0
1510776535.240,828.453,825.163,853.608,815.088,0.000,0.000,0
1510776535.242,820.571,821.531,850.181,811.798,0.000,0.000,0
1510776535.244,817.555,820.434,848.878,806.794,0.000,0.000,0
1510776535.246,834.553,817.829,846.617,821.531,0.000,0.000,0
1510776535.248,835.170,817.075,844.286,840.859,0.000,0.000,0
1510776535.250,835.924,821.736,852.717,845.040,0.000,0.000,0
1510776535.252,826.466,829.070,857.994,830.989,0.000,0.000,0
1510776535.254,811.249,829.276,858.406,809.056,0.000,0.000,0
1510776535.256,815.568,829.481,857.377,800.900,0.000,0.000,0
1510776535.258,819.406,826.328,855.458,802.202,0.000,0.000,0
1510776535.260,828.179,825.506,856.692,813.991,0.000,0.000,0
1510776535.262,843.190,828.522,855.458,831.332,0.000,0.000,0
1510776535.264,847.645,831.058,854.841,849.495,0.000,0.000,0
1510776535.266,849.221,825.300,848.467,861.010,0.000,0.000,0
1510776535.268,843.669,826.397,853.402,882.943,0.000,0.000,0
1510776535.270,832.977,822.216,848.536,853.402,0.000,0.000,0
1510776535.272,838.734,826.603,848.193,837.364,0.000,0.000,0
1510776535.274,845.040,829.961,839.283,827.082,0.000,0.000,0
1510776535.276,829.618,832.634,841.339,830.372,0.000,0.000,0
1510776535.278,832.360,835.307,847.919,836.610,0.000,0.000,0
1510776535.280,844.629,835.033,848.467,820.503,0.000,0.000,0
1510776535.282,849.906,830.852,851.826,826.054,0.000,0.000,0
1510776535.284,846.754,828.727,853.059,852.374,0.000,0.000,0
1510776535.286,829.070,832.360,849.838,859.297,0.000,0.000,0
1510776535.288,826.191,835.376,847.713,858.817,0.000,0.000,0
1510776535.290,812.757,828.933,844.492,819.543,0.000,0.000,0
1510776535.292,816.184,831.949,850.181,812.209,0.000,0.000,0
1510776535.294,824.204,831.812,856.075,805.218,0.000,0.000,0
1510776535.296,822.901,828.659,859.845,811.798,0.000,0.000,0
1510776535.298,832.840,830.441,863.409,830.509,0.000,0.000,0
1510776535.300,842.710,833.868,866.699,826.191,0.000,0.000,0
1510776535.302,832.566,831.058,866.905,820.091,0.000,0.000,0
1510776535.304,824.409,826.397,856.966,817.350,0.000,0.000,0
1510776535.306,823.792,830.098,853.813,818.583,0.000,0.000,0
1510776535.308,835.307,836.404,855.870,828.453,0.000,0.000,0
1510776535.310,840.174,842.161,855.801,840.311,0.000,0.000,0
1510776535.312,833.799,835.650,857.720,837.501,0.000,0.000,0
1510776535.314,826.397,830.030,860.051,832.771,0.000,0.000,0
1510776535.316,823.244,829.002,854.156,820.571,0.000,0.000,0
1510776535.318,818.995,833.114,851.689,816.459,0.000,0.000,0
1510776535.320,821.256,835.376,852.991,824.067,0.000,0.000,0
1510776535.322,832.497,836.061,856.486,827.494,0.000,0.000,0
1510776535.324,841.339,831.058,855.116,829.481,0.000,0.000,0
1510776535.326,827.768,823.313,851.483,833.457,0.000,0.000,0
1510776535.328,824.752,820.160,852.580,846.754,0.000,0.000,0
1510776535.330,831.469,824.409,858.063,856.898,0.000,0.000,0
1510776535.332,836.130,830.372,865.191,860.873,0.000,0.000,0
1510776535.334,833.799,827.699,866.493,850.249,0.000,0.000,0
1510776535.336,827.494,825.849,858.748,817.007,0.000,0.000,0
1510776535.338,826.740,831.126,850.729,807.068,0.000,0.000,0
1510776535.340,828.659,830.989,847.713,814.471,0.000,0.000,0
1510776535.342,830.441,831.743,848.673,822.285,0.000,0.000,0
1510776535.344,833.868,832.017,850.866,833.320,0.000,0.000,0
1510776535.346,840.859,830.509,850.935,842.710,0.000,0.000,0
1510776535.348,842.298,829.687,849.221,851.689,0.000,0.000,0
1510776535.350,838.597,829.344,851.414,863.135,0.000,0.000,0
1510776535.352,842.093,830.715,857.926,865.260,0.000,0.000,0
1510776535.354,838.666,831.949,862.312,839.351,0.000,0.000,0
1510776535.356,829.550,829.207,855.938,810.153,0.000,0.000,0
1510776535.358,809.467,824.889,847.713,796.033,0.000,0.000,0
1510776535.360,808.097,831.058,851.140,815.362,0.000,0.000,0
1510776535.362,837.295,843.669,861.147,836.130,0.000,0.000,0
1510776535.364,851.483,847.782,866.151,842.367,0.000,0.000,0
1510776535.366,852.168,842.093,864.574,848.604,0.000,0.000,0
1510776535.368,836.473,830.989,859.160,855.664,0.000,0.000,0
1510776535.370,816.527,819.337,846.274,827.219,0.000,0.000,0
1510776535.372,812.003,821.051,849.701,813.511,0.000,0.000,0
1510776535.374,811.661,822.353,848.193,808.439,0.000,0.000,0
1510776535.376,815.362,821.942,852.922,816.321,0.000,0.000,0
1510776535.378,828.042,823.450,853.676,821.188,0.000,0.000,0
1510776535.380,832.154,827.288,850.181,823.792,0.000,0.000,0
1510776535.382,835.993,829.618,849.221,839.488,0.000,0.000,0
1510776535.384,829.276,828.590,855.458,858.131,0.000,0.000,0
1510776535.386,831.538,825.506,857.035,847.233,0.000,0.000,0
1510776535.388,840.859,829.687,852.031,824.341,0.000,0.000,0
1510776535.390,836.473,835.033,849.290,822.216,0.000,0.000,0
1510776535.392,819.200,832.566,848.741,817.075,0.000,0.000,0
1510776535.394,816.733,829.481,853.196,819.063,0.000,0.000,0
1510776535.396,819.817,833.799,860.805,821.531,0.000,0.000,0
1510776535.398,824.067,835.376,860.736,816.664,0.000,0.000,0
1510776535.400,827.562,832.977,859.297,816.938,0.000,0.000,0
1510776535.402,827.425,829.207,859.365,827.494,0.000,0.000,0
1510776535.404,832.154,825.095,855.116,823.107,0.000,0.000,0
1510776535.406,833.594,824.889,850.249,813.374,0.000,0.000,0
1510776535.408,829.002,825.369,844.972,831.195,0.000,0.000,0
1510776535.410,829.618,827.973,845.314,851.346,0.000,0.000,0
1510776535.412,827.631,831.058,850.112,832.566,0.000,0.000,0
1510776535.414,829.550,832.360,854.088,824.683,0.000,0.000,0
1510776535.416,817.624,824.409,849.221,809.604,0.000,0.000,0
1510776535.418,807.754,822.490,844.766,802.271,0.000,0.000,0
1510776535.420,810.358,827.357,844.766,810.221,0.000,0.000,0
1510776535.422,820.777,833.662,846.754,813.443,0.000,0.000,0
1510776535.424,837.158,836.747,846.479,811.866,0.000,0.000,0
1510776535.426,843.875,829.824,844.286,824.683,0.000,0.000,0
1510776535.428,850.592,826.603,848.604,846.342,0.000,0.000,0
1510776535.430,843.464,823.861,851.894,855.116,0.000,0.000,0
1510776535.432,830.852,819.406,849.769,850.044,0.000,0.000,0
1510776535.434,828.111,820.091,849.632,846.342,0.000,0.000,0
1510776535.436,820.640,821.805,844.149,825.095,0.000,0.000,0
1510776535.438,814.197,827.562,846.137,815.430,0.000,0.000,0
1510776535.440,827.151,832.360,848.467,827.425,0.000,0.000,0
1510776535.442,837.158,831.812,848.947,829.276,0.000,0.000,0
1510776535.444,842.847,832.977,847.096,825.917,0.000,0.000,0
1510776535.446,850.455,835.307,845.109,827.836,0.000,0.000,0
1510776535.448,848.399,834.965,842.984,839.420,0.000,0.000,0
1510776535.450,840.928,836.061,847.096,846.685,0.000,0.000,0
1510776535.452,833.936,835.581,851.483,846.548,0.000,0.000,0
1510776535.454,826.945,836.061,850.592,825.712,0.000,0.000,0
1510776535.456,823.792,834.622,848.193,807.617,0.000,0.000,0
1510776535.458,833.183,835.650,848.193,811.729,0.000,0.000,0
1510776535.460,844.560,837.295,849.221,827.151,0.000,0.000,0
1510776535.462,847.987,835.170,846.205,831.058,0.000,0.000,0
1510776535.464,843.943,838.049,844.286,842.161,0.000,0.000,0
1510776535.466,839.283,837.432,843.464,857.857,0.000,0.000,0
1510776535.468,837.432,834.074,845.246,872.525,0.000,0.000,0
1510776535.470,841.956,837.158,847.782,857.994,0.000,0.000,0
1510776535.472,846.342,837.089,845.588,838.392,0.000,0.000,0
1510776535.474,841.545,834.622,842.778,826.328,0.000,0.000,0
1510776535.476,847.096,835.033,843.532,823.039,0.000,0.000,0
1510776535.478,850.455,836.130,846.479,829.687,0.000,0.000,0
1510776535.480,846.068,837.089,849.838,837.501,0.000,0.000,0
1510776535.482,847.645,836.061,849.632,844.972,0.000,0.000,0
1510776535.484,841.133,831.058,846.548,841.819,0.000,0.000,0
1510776535.486,847.576,829.824,848.810,844.972,0.000,0.000,0
1510776535.488,857.515,833.936,853.402,865.808,0.000,0.000,0
1510776535.490,860.736,835.787,850.044,872.868,0.000,0.000,0
1510776535.492,853.471,836.610,842.984,866.562,0.000,0.000,0
1510776535.494,856.212,832.429,840.105,854.293,0.000,0.000,0
1510776535.496,857.994,834.348,839.488,838.460,0.000,0.000,0
1510776535.498,838.392,832.223,839.488,826.945,0.000,0.000,0
1510776535.500,833.936,831.469,841.887,831.332,0.000,0.000,0
1510776535.502,846.617,832.497,843.464,853.608,0.000,0.000,0
1510776535.504,855.253,836.335,842.504,851.072,0.000,0.000,0
1510776535.506,861.627,837.706,840.722,837.843,0.000,0.000,0
1510776535.508,856.144,835.376,838.117,847.850,0.000,0.000,0
1510776535.510,851.552,831.195,838.049,856.007,0.000,0.000,0
1510776535.512,852.648,831.126,839.557,848.947,0.000,0.000,0
1510776535.514,856.212,834.896,841.545,838.392,0.000,0.000,0
